experiment 2019-01-28_au in o2 800um nozzle_irregular-January212020161648				
Pr:Counts per Second				
	Characteristic Energy eV	1486.61	Acquisition Time s	1
KE_Pr:Counts per Second	BE_Pr:Counts per Second	CPS_Pr:Counts per Second		
1306.61	180	1564.43		
1306.71	179.9	1628.94		
1306.81	179.8	1671.69		
1306.91	179.7	1644.42		
1307.01	179.6	1696.04		
1307.11	179.5	1616.51		
1307.21	179.4	1632.72		
1307.31	179.3	1650.7		
1307.41	179.2	1653.73		
1307.51	179.1	1693.21		
1307.61	179	1673.44		
1307.71	178.9	1632.57		
1307.81	178.8	1654.59		
1307.91	178.7	1671.51		
1308.01	178.6	1662.13		
1308.11	178.5	1640.37		
1308.21	178.4	1656.13		
1308.31	178.3	1659.88		
1308.41	178.2	1676.46		
1308.51	178.1	1646.77		
1308.61	178	1651.07		
1308.71	177.9	1655.62		
1308.81	177.8	1638.37		
1308.91	177.7	1645.77		
1309.01	177.6	1638.27		
1309.11	177.5	1647.73		
1309.21	177.4	1655.93		
1309.31	177.3	1649.72		
1309.41	177.2	1638.42		
1309.51	177.1	1661.79		
1309.61	177	1648.25		
1309.71	176.9	1629.53		
1309.81	176.8	1636.92		
1309.91	176.7	1723.05		
1310.01	176.6	1647		
1310.11	176.5	1653.06		
1310.21	176.4	1647.89		
1310.31	176.3	1645.76		
1310.41	176.2	1676.31		
1310.51	176.1	1655.33		
1310.61	176	1650.77		
1310.71	175.9	1710.6		
1310.81	175.8	1649.32		
1310.91	175.7	1674.47		
1311.01	175.6	1713.98		
1311.11	175.5	1659.82		
1311.21	175.4	1604.19		
1311.31	175.3	1681.98		
1311.41	175.2	1674.58		
1311.51	175.1	1651.31		
1311.61	175	1673.22		
1311.71	174.9	1702.87		
1311.81	174.8	1675.57		
1311.91	174.7	1687.5		
1312.01	174.6	1735.04		
1312.11	174.5	1712.87		
1312.21	174.4	1691.22		
1312.31	174.3	1738.19		
1312.41	174.2	1669.07		
1312.51	174.1	1663.5		
1312.61	174	1649.1		
1312.71	173.9	1649		
1312.81	173.8	1638.72		
1312.91	173.7	1652.32		
1313.01	173.6	1651.84		
1313.11	173.5	1669.18		
1313.21	173.4	1678.25		
1313.31	173.3	1667.79		
1313.41	173.2	1666.54		
1313.51	173.1	1690.99		
1313.61	173	1662.96		
1313.71	172.9	1703.58		
1313.81	172.8	1695.72		
1313.91	172.7	1694.24		
1314.01	172.6	1685.46		
1314.11	172.5	1720.27		
1314.21	172.4	1659.67		
1314.31	172.3	1664.05		
1314.41	172.2	1689.84		
1314.51	172.1	1683.73		
1314.61	172	1656.22		
1314.71	171.9	1690.32		
1314.81	171.8	1703.48		
1314.91	171.7	1680.68		
1315.01	171.6	1714.22		
1315.11	171.5	1701.16		
1315.21	171.4	1653.69		
1315.31	171.3	1654.26		
1315.41	171.2	1667.14		
1315.51	171.1	1686.12		
1315.61	171	1662.45		
1315.71	170.9	1671.13		
1315.81	170.8	1688.6		
1315.91	170.7	1733.68		
1316.01	170.6	1698.11		
1316.11	170.5	1686.01		
1316.21	170.4	1699.62		
1316.31	170.3	1726.22		
1316.41	170.2	1712.44		
1316.51	170.1	1708.49		
1316.61	170	1699.74		
1316.71	169.9	1656.64		
1316.81	169.8	1684.04		
1316.91	169.7	1702.79		
1317.01	169.6	1717.81		
1317.11	169.5	1731.04		
1317.21	169.4	1677.92		
1317.31	169.3	1719.4		
1317.41	169.2	1687.86		
1317.51	169.1	1683.05		
1317.61	169	1664.56		
1317.71	168.9	1701.27		
1317.81	168.8	1658.08		
1317.91	168.7	1684.65		
1318.01	168.6	1702.69		
1318.11	168.5	1678.42		
1318.21	168.4	1665.86		
1318.31	168.3	1698.44		
1318.41	168.2	1692.79		
1318.51	168.1	1704.1		
1318.61	168	1741.22		
1318.71	167.9	1719.4		
1318.81	167.8	1725.26		
1318.91	167.7	1675.65		
1319.01	167.6	1706.45		
1319.11	167.5	1675.66		
1319.21	167.4	1691.92		
1319.31	167.3	1715.09		
1319.41	167.2	1733.43		
1319.51	167.1	1710.22		
1319.61	167	1699.44		
1319.71	166.9	1699.16		
1319.81	166.8	1710.15		
1319.91	166.7	1698.29		
1320.01	166.6	1699.94		
1320.11	166.5	1684.46		
1320.21	166.4	1733.75		
1320.31	166.3	1671.32		
1320.41	166.2	1717.31		
1320.51	166.1	1704.21		
1320.61	166	1716.71		
1320.71	165.9	1713.26		
1320.81	165.8	1667.86		
1320.91	165.7	1736.6		
1321.01	165.6	1739.77		
1321.11	165.5	1703.11		
1321.21	165.4	1721.55		
1321.31	165.3	1707.06		
1321.41	165.2	1700.72		
1321.51	165.1	1703.65		
1321.61	165	1722.29		
1321.71	164.9	1756.2		
1321.81	164.8	1722.57		
1321.91	164.7	1729.39		
1322.01	164.6	1702.64		
1322.11	164.5	1701		
1322.21	164.4	1747.41		
1322.31	164.3	1699.9		
1322.41	164.2	1677.22		
1322.51	164.1	1737.66		
1322.61	164	1680.54		
1322.71	163.9	1721.1		
1322.81	163.8	1703.84		
1322.91	163.7	1731.32		
1323.01	163.6	1711.92		
1323.11	163.5	1744.12		
1323.21	163.4	1730.53		
1323.31	163.3	1729.64		
1323.41	163.2	1722.33		
1323.51	163.1	1715.35		
1323.61	163	1714.29		
1323.71	162.9	1706.73		
1323.81	162.8	1793.63		
1323.91	162.7	1737.65		
1324.01	162.6	1711.29		
1324.11	162.5	1734.27		
1324.21	162.4	1737.57		
1324.31	162.3	1724.56		
1324.41	162.2	1684.89		
1324.51	162.1	1705.72		
1324.61	162	1736.16		
1324.71	161.9	1733.04		
1324.81	161.8	1706.22		
1324.91	161.7	1749.19		
1325.01	161.6	1718.17		
1325.11	161.5	1706.67		
1325.21	161.4	1737.54		
1325.31	161.3	1698.91		
1325.41	161.2	1731.46		
1325.51	161.1	1735.51		
1325.61	161	1707.46		
1325.71	160.9	1734.64		
1325.81	160.8	1739.12		
1325.91	160.7	1724.43		
1326.01	160.6	1762.51		
1326.11	160.5	1772.52		
1326.21	160.4	1714.94		
1326.31	160.3	1743.95		
1326.41	160.2	1766.59		
1326.51	160.1	1793.99		
1326.61	160	1752.19		
1326.71	159.9	1739.69		
1326.81	159.8	1703.29		
1326.91	159.7	1704.75		
1327.01	159.6	1770.85		
1327.11	159.5	1725.88		
1327.21	159.4	1769.41		
1327.31	159.3	1760		
1327.41	159.2	1744.74		
1327.51	159.1	1720.7		
1327.61	159	1758.28		
1327.71	158.9	1739.37		
1327.81	158.8	1766.04		
1327.91	158.7	1747.94		
1328.01	158.6	1773.4		
1328.11	158.5	1760.03		
1328.21	158.4	1768.1		
1328.31	158.3	1745.24		
1328.41	158.2	1757.84		
1328.51	158.1	1727.83		
1328.61	158	1763.15		
1328.71	157.9	1704.07		
1328.81	157.8	1707.09		
1328.91	157.7	1727.46		
1329.01	157.6	1716.63		
1329.11	157.5	1758.82		
1329.21	157.4	1747.63		
1329.31	157.3	1741.01		
1329.41	157.2	1808.48		
1329.51	157.1	1739.06		
1329.61	157	1764.73		
1329.71	156.9	1758.93		
1329.81	156.8	1773.23		
1329.91	156.7	1763.22		
1330.01	156.6	1784.53		
1330.11	156.5	1734.84		
1330.21	156.4	1760.13		
1330.31	156.3	1767.74		
1330.41	156.2	1743.45		
1330.51	156.1	1766.78		
1330.61	156	1766.59		
1330.71	155.9	1797.51		
1330.81	155.8	1737.81		
1330.91	155.7	1775.88		
1331.01	155.6	1763.62		
1331.11	155.5	1780.37		
1331.21	155.4	1774.99		
1331.31	155.3	1770.27		
1331.41	155.2	1744.79		
1331.51	155.1	1761.34		
1331.61	155	1760.62		
1331.71	154.9	1754.1		
1331.81	154.8	1765.2		
1331.91	154.7	1713.02		
1332.01	154.6	1767.52		
1332.11	154.5	1781.21		
1332.21	154.4	1775.3		
1332.31	154.3	1766.87		
1332.41	154.2	1809.54		
1332.51	154.1	1808.67		
1332.61	154	1804.4		
1332.71	153.9	1803.12		
1332.81	153.8	1793.31		
1332.91	153.7	1803.25		
1333.01	153.6	1791.09		
1333.11	153.5	1756.87		
1333.21	153.4	1805.97		
1333.31	153.3	1810.79		
1333.41	153.2	1804.54		
1333.51	153.1	1778.53		
1333.61	153	1808.64		
1333.71	152.9	1795.1		
1333.81	152.8	1811.15		
1333.91	152.7	1805.94		
1334.01	152.6	1781.36		
1334.11	152.5	1769.63		
1334.21	152.4	1803.41		
1334.31	152.3	1821.33		
1334.41	152.2	1786.53		
1334.51	152.1	1790.68		
1334.61	152	1741.58		
1334.71	151.9	1801.99		
1334.81	151.8	1863.6		
1334.91	151.7	1808.1		
1335.01	151.6	1779.36		
1335.11	151.5	1781.13		
1335.21	151.4	1769.4		
1335.31	151.3	1818.49		
1335.41	151.2	1769.95		
1335.51	151.1	1799.79		
1335.61	151	1825.91		
1335.71	150.9	1784.47		
1335.81	150.8	1805.58		
1335.91	150.7	1822.94		
1336.01	150.6	1776.25		
1336.11	150.5	1794.91		
1336.21	150.4	1795.78		
1336.31	150.3	1793.92		
1336.41	150.2	1775.58		
1336.51	150.1	1764.47		
1336.61	150	1824.83		
1336.71	149.9	1791.23		
1336.81	149.8	1826.22		
1336.91	149.7	1858.4		
1337.01	149.6	1788.89		
1337.11	149.5	1810.08		
1337.21	149.4	1832.57		
1337.31	149.3	1796.83		
1337.41	149.2	1783.03		
1337.51	149.1	1791.28		
1337.61	149	1841.29		
1337.71	148.9	1788.68		
1337.81	148.8	1789.35		
1337.91	148.7	1784.71		
1338.01	148.6	1803.36		
1338.11	148.5	1840.51		
1338.21	148.4	1825.3		
1338.31	148.3	1816.37		
1338.41	148.2	1832.4		
1338.51	148.1	1836.52		
1338.61	148	1835.33		
1338.71	147.9	1827.64		
1338.81	147.8	1810.25		
1338.91	147.7	1835.53		
1339.01	147.6	1796.81		
1339.11	147.5	1849.93		
1339.21	147.4	1784.2		
1339.31	147.3	1816.45		
1339.41	147.2	1848.8		
1339.51	147.1	1791.94		
1339.61	147	1750.09		
1339.71	146.9	1803.39		
1339.81	146.8	1831.25		
1339.91	146.7	1807.92		
1340.01	146.6	1820.64		
1340.11	146.5	1807.79		
1340.21	146.4	1816.81		
1340.31	146.3	1828.87		
1340.41	146.2	1801.53		
1340.51	146.1	1875.08		
1340.61	146	1895.83		
1340.71	145.9	1840.89		
1340.81	145.8	1783.59		
1340.91	145.7	1791.5		
1341.01	145.6	1854.06		
1341.11	145.5	1840.27		
1341.21	145.4	1818.96		
1341.31	145.3	1803.7		
1341.41	145.2	1856.61		
1341.51	145.1	1832.74		
1341.61	145	1862.26		
1341.71	144.9	1884.39		
1341.81	144.8	1825.98		
1341.91	144.7	1835.43		
1342.01	144.6	1816.24		
1342.11	144.5	1851.74		
1342.21	144.4	1854.41		
1342.31	144.3	1894.02		
1342.41	144.2	1862.66		
1342.51	144.1	1852.08		
1342.61	144	1805.12		
1342.71	143.9	1852.25		
1342.81	143.8	1816.96		
1342.91	143.7	1811.33		
1343.01	143.6	1759.48		
1343.11	143.5	1812.28		
1343.21	143.4	1840.55		
1343.31	143.3	1846.97		
1343.41	143.2	1831.48		
1343.51	143.1	1788.95		
1343.61	143	1765.67		
1343.71	142.9	1816.85		
1343.81	142.8	1864.41		
1343.91	142.7	1848.98		
1344.01	142.6	1827.26		
1344.11	142.5	1865.74		
1344.21	142.4	1821.95		
1344.31	142.3	1886.76		
1344.41	142.2	1825.29		
1344.51	142.1	1837.91		
1344.61	142	1866.23		
1344.71	141.9	1878.23		
1344.81	141.8	1838.96		
1344.91	141.7	1871.95		
1345.01	141.6	1848.43		
1345.11	141.5	1864.66		
1345.21	141.4	1865.74		
1345.31	141.3	1840.95		
1345.41	141.2	1856.26		
1345.51	141.1	1805.83		
1345.61	141	1867.14		
1345.71	140.9	1846.47		
1345.81	140.8	1803.53		
1345.91	140.7	1810.26		
1346.01	140.6	1835.96		
1346.11	140.5	1867.15		
1346.21	140.4	1884.67		
1346.31	140.3	1840.39		
1346.41	140.2	1838.73		
1346.51	140.1	1834.56		
1346.61	140	1841.32		
1346.71	139.9	1868.84		
1346.81	139.8	1863.88		
1346.91	139.7	1913.34		
1347.01	139.6	1846.62		
1347.11	139.5	1852.62		
1347.21	139.4	1836.37		
1347.31	139.3	1835.83		
1347.41	139.2	1826.2		
1347.51	139.1	1889.26		
1347.61	139	1874.75		
1347.71	138.9	1833.71		
1347.81	138.8	1844.33		
1347.91	138.7	1871.93		
1348.01	138.6	1894.02		
1348.11	138.5	1852.9		
1348.21	138.4	1876.15		
1348.31	138.3	1845.98		
1348.41	138.2	1871.9		
1348.51	138.1	1893.11		
1348.61	138	1867.42		
1348.71	137.9	1911.75		
1348.81	137.8	1903.74		
1348.91	137.7	1890.69		
1349.01	137.6	1934.75		
1349.11	137.5	1881.51		
1349.21	137.4	1864.24		
1349.31	137.3	1881.25		
1349.41	137.2	1875.72		
1349.51	137.1	1877.87		
1349.61	137	1854.87		
1349.71	136.9	1878.06		
1349.81	136.8	1853.68		
1349.91	136.7	1881.57		
1350.01	136.6	1859.28		
1350.11	136.5	1866.75		
1350.21	136.4	1893		
1350.31	136.3	1886.95		
1350.41	136.2	1885.77		
1350.51	136.1	1827.27		
1350.61	136	1829.24		
1350.71	135.9	1883.66		
1350.81	135.8	1884.69		
1350.91	135.7	1895.82		
1351.01	135.6	1902.4		
1351.11	135.5	1897.49		
1351.21	135.4	1909.65		
1351.31	135.3	1915.34		
1351.41	135.2	1878.39		
1351.51	135.1	1877.12		
1351.61	135	1863.77		
1351.71	134.9	1886.13		
1351.81	134.8	1885.21		
1351.91	134.7	1912.08		
1352.01	134.6	1920.5		
1352.11	134.5	1904.62		
1352.21	134.4	1917.24		
1352.31	134.3	1945.69		
1352.41	134.2	1930.06		
1352.51	134.1	1864.2		
1352.61	134	1898.89		
1352.71	133.9	1890.15		
1352.81	133.8	1920.04		
1352.91	133.7	1920.31		
1353.01	133.6	1859.91		
1353.11	133.5	1918.75		
1353.21	133.4	1867.92		
1353.31	133.3	1907.54		
1353.41	133.2	1915.66		
1353.51	133.1	1930.56		
1353.61	133	1941.35		
1353.71	132.9	1908.62		
1353.81	132.8	1938.84		
1353.91	132.7	1950.15		
1354.01	132.6	1925.24		
1354.11	132.5	1931.9		
1354.21	132.4	1889.14		
1354.31	132.3	1933.49		
1354.41	132.2	1952.72		
1354.51	132.1	1945.87		
1354.61	132	1922.72		
1354.71	131.9	1926.14		
1354.81	131.8	1891.29		
1354.91	131.7	1903.11		
1355.01	131.6	1932.13		
1355.11	131.5	1935.81		
1355.21	131.4	1948.34		
1355.31	131.3	1980.38		
1355.41	131.2	1928.62		
1355.51	131.1	1935.84		
1355.61	131	1912.92		
1355.71	130.9	1879.48		
1355.81	130.8	1954.06		
1355.91	130.7	1918.59		
1356.01	130.6	1934.93		
1356.11	130.5	1890.85		
1356.21	130.4	1932.22		
1356.31	130.3	1952.58		
1356.41	130.2	1963.43		
1356.51	130.1	1933.11		
1356.61	130	1988.89		
1356.66	129.95	1943.09		
1356.71	129.9	1979.94		
1356.76	129.85	1928.35		
1356.81	129.8	1950.6		
1356.86	129.75	1944.29		
1356.91	129.7	1952.38		
1356.96	129.65	1969.87		
1357.01	129.6	1925		
1357.06	129.55	1935.46		
1357.11	129.5	1909.8		
1357.16	129.45	1933.27		
1357.21	129.4	2005.07		
1357.26	129.35	1953.4		
1357.31	129.3	1940.69		
1357.36	129.25	1911.93		
1357.41	129.2	1952.26		
1357.46	129.15	1960.26		
1357.51	129.1	1942.07		
1357.56	129.05	1950.01		
1357.61	129	1933.1		
1357.66	128.95	1937.58		
1357.71	128.9	1943.14		
1357.76	128.85	1955.75		
1357.81	128.8	1997.94		
1357.86	128.75	2019.49		
1357.91	128.7	1954.15		
1357.96	128.65	1973.88		
1358.01	128.6	1944.14		
1358.06	128.55	2004.17		
1358.11	128.5	1961.33		
1358.16	128.45	1920.23		
1358.21	128.4	1924.14		
1358.26	128.35	1933.2		
1358.31	128.3	1922.72		
1358.36	128.25	1913		
1358.41	128.2	1924.44		
1358.46	128.15	1978.01		
1358.51	128.1	1955.29		
1358.56	128.05	1921.38		
1358.61	128	1960.44		
1358.66	127.95	1996.01		
1358.71	127.9	1973.99		
1358.76	127.85	1992.81		
1358.81	127.8	1964.13		
1358.86	127.75	1970.7		
1358.91	127.7	1976.39		
1358.96	127.65	1981.43		
1359.01	127.6	1981.09		
1359.06	127.55	2001.41		
1359.11	127.5	2002.04		
1359.16	127.45	1952.06		
1359.21	127.4	1970.28		
1359.26	127.35	1951.59		
1359.31	127.3	1962.16		
1359.36	127.25	2006.34		
1359.41	127.2	1961.67		
1359.46	127.15	1989.75		
1359.51	127.1	1986.06		
1359.56	127.05	1989.53		
1359.61	127	1978.19		
1359.66	126.95	1969.57		
1359.71	126.9	1980.35		
1359.76	126.85	1946.48		
1359.81	126.8	1964.43		
1359.86	126.75	1962.69		
1359.91	126.7	1931.63		
1359.96	126.65	1933.16		
1360.01	126.6	1953.39		
1360.06	126.55	1960.52		
1360.11	126.5	1965.42		
1360.16	126.45	1941.56		
1360.21	126.4	1992.49		
1360.26	126.35	1998.31		
1360.31	126.3	1972.06		
1360.36	126.25	2025.87		
1360.41	126.2	2032.38		
1360.46	126.15	1950.74		
1360.51	126.1	1976.7		
1360.56	126.05	2018.07		
1360.61	126	1984.19		
1360.66	125.95	2011.86		
1360.71	125.9	2020.16		
1360.76	125.85	2025.55		
1360.81	125.8	1953.94		
1360.86	125.75	1951.49		
1360.91	125.7	1969.48		
1360.96	125.65	1991.38		
1361.01	125.6	1986.08		
1361.06	125.55	2008.68		
1361.11	125.5	2011.11		
1361.16	125.45	1980.71		
1361.21	125.4	1958.83		
1361.26	125.35	2001.56		
1361.31	125.3	1988.39		
1361.36	125.25	1997.06		
1361.41	125.2	1977.83		
1361.46	125.15	1992.99		
1361.51	125.1	2038.89		
1361.56	125.05	2032.65		
1361.61	125	2054.36		
1361.66	124.95	2014.75		
1361.71	124.9	1985.35		
1361.76	124.85	1966.96		
1361.81	124.8	2023.19		
1361.86	124.75	2020.81		
1361.91	124.7	1987.35		
1361.96	124.65	2047.81		
1362.01	124.6	2043.96		
1362.06	124.55	2039.14		
1362.11	124.5	2014.89		
1362.16	124.45	2033.67		
1362.21	124.4	1958.17		
1362.26	124.35	1994.05		
1362.31	124.3	2029.75		
1362.36	124.25	2008.91		
1362.41	124.2	2006.45		
1362.46	124.15	1988.93		
1362.51	124.1	2032.02		
1362.56	124.05	2020.21		
1362.61	124	2034.33		
1362.66	123.95	2024.46		
1362.71	123.9	2043.17		
1362.76	123.85	2052.74		
1362.81	123.8	2064.04		
1362.86	123.75	2059.26		
1362.91	123.7	2032.41		
1362.96	123.65	1981.83		
1363.01	123.6	2011.44		
1363.06	123.55	2062.33		
1363.11	123.5	2040.55		
1363.16	123.45	2062.12		
1363.21	123.4	2057.72		
1363.26	123.35	2010.42		
1363.31	123.3	1995.41		
1363.36	123.25	2010.29		
1363.41	123.2	2042.52		
1363.46	123.15	2057.1		
1363.51	123.1	2048.49		
1363.56	123.05	2030.1		
1363.61	123	2032.25		
1363.66	122.95	2042.47		
1363.71	122.9	2057.93		
1363.76	122.85	2013.81		
1363.81	122.8	2049.56		
1363.86	122.75	2072.48		
1363.91	122.7	2100.71		
1363.96	122.65	2083.38		
1364.01	122.6	2055.01		
1364.06	122.55	2080.53		
1364.11	122.5	2072.03		
1364.16	122.45	2075.97		
1364.21	122.4	2076.83		
1364.26	122.35	2036		
1364.31	122.3	2064.08		
1364.36	122.25	2088.25		
1364.41	122.2	2101.4		
1364.46	122.15	2075.27		
1364.51	122.1	2057.99		
1364.56	122.05	2040.1		
1364.61	122	2075.06		
1364.66	121.95	2085.62		
1364.71	121.9	2103.99		
1364.76	121.85	2114.96		
1364.81	121.8	2100.05		
1364.86	121.75	2054.35		
1364.91	121.7	2036.36		
1364.96	121.65	2111.65		
1365.01	121.6	2111.22		
1365.06	121.55	2071.68		
1365.11	121.5	2039.18		
1365.16	121.45	2077.68		
1365.21	121.4	2073.64		
1365.26	121.35	2096.61		
1365.31	121.3	2123.73		
1365.36	121.25	2128.4		
1365.41	121.2	2088.31		
1365.46	121.15	2113.31		
1365.51	121.1	2101.2		
1365.56	121.05	2100.88		
1365.61	121	2092.56		
1365.66	120.95	2061.15		
1365.71	120.9	2135.65		
1365.76	120.85	2122.27		
1365.81	120.8	2064.18		
1365.86	120.75	2056.72		
1365.91	120.7	2054.87		
1365.96	120.65	2116.82		
1366.01	120.6	2114.66		
1366.06	120.55	2112.11		
1366.11	120.5	2160.26		
1366.16	120.45	2114.29		
1366.21	120.4	2119.03		
1366.26	120.35	2149.18		
1366.31	120.3	2160.02		
1366.36	120.25	2128.22		
1366.41	120.2	2096.72		
1366.46	120.15	2086.3		
1366.51	120.1	2126.74		
1366.56	120.05	2106.69		
1366.61	120	2146.53		
1366.66	119.95	2112.87		
1366.71	119.9	2076.09		
1366.76	119.85	2148.08		
1366.81	119.8	2113.62		
1366.86	119.75	2152.02		
1366.91	119.7	2122.86		
1366.96	119.65	2150.73		
1367.01	119.6	2080.02		
1367.06	119.55	2088.9		
1367.11	119.5	2076.47		
1367.16	119.45	2084.54		
1367.21	119.4	2106.91		
1367.26	119.35	2117.25		
1367.31	119.3	2134.17		
1367.36	119.25	2128.37		
1367.41	119.2	2128.95		
1367.46	119.15	2129.38		
1367.51	119.1	2126.7		
1367.56	119.05	2129.14		
1367.61	119	2150.67		
1367.66	118.95	2171.46		
1367.71	118.9	2124.34		
1367.76	118.85	2152.58		
1367.81	118.8	2109.37		
1367.86	118.75	2173.33		
1367.91	118.7	2139.75		
1367.96	118.65	2111.72		
1368.01	118.6	2126.77		
1368.06	118.55	2124.89		
1368.11	118.5	2140.86		
1368.16	118.45	2166.12		
1368.21	118.4	2147.44		
1368.26	118.35	2129.92		
1368.31	118.3	2093.95		
1368.36	118.25	2125.17		
1368.41	118.2	2131.77		
1368.46	118.15	2152.08		
1368.51	118.1	2141.94		
1368.56	118.05	2116.35		
1368.61	118	2114.65		
1368.66	117.95	2119.78		
1368.71	117.9	2127.61		
1368.76	117.85	2131.51		
1368.81	117.8	2153.75		
1368.86	117.75	2129.99		
1368.91	117.7	2147.82		
1368.96	117.65	2171.17		
1369.01	117.6	2176.04		
1369.06	117.55	2169.51		
1369.11	117.5	2153.15		
1369.16	117.45	2167.67		
1369.21	117.4	2126.03		
1369.26	117.35	2141.38		
1369.31	117.3	2190.47		
1369.36	117.25	2184.89		
1369.41	117.2	2154.4		
1369.46	117.15	2111.41		
1369.51	117.1	2087.14		
1369.56	117.05	2143.2		
1369.61	117	2126.29		
1369.66	116.95	2168.71		
1369.71	116.9	2175.84		
1369.76	116.85	2146.69		
1369.81	116.8	2109.38		
1369.86	116.75	2143.35		
1369.91	116.7	2166.54		
1369.96	116.65	2171.24		
1370.01	116.6	2137.5		
1370.06	116.55	2216.53		
1370.11	116.5	2185.03		
1370.16	116.45	2118.3		
1370.21	116.4	2139.07		
1370.26	116.35	2130.22		
1370.31	116.3	2104.44		
1370.36	116.25	2146.69		
1370.41	116.2	2199.71		
1370.46	116.15	2193.88		
1370.51	116.1	2133.11		
1370.56	116.05	2123.87		
1370.61	116	2164.12		
1370.66	115.95	2185		
1370.71	115.9	2170.23		
1370.76	115.85	2124.69		
1370.81	115.8	2111.07		
1370.86	115.75	2164.21		
1370.91	115.7	2105.69		
1370.96	115.65	2170.96		
1371.01	115.6	2178.69		
1371.06	115.55	2190.13		
1371.11	115.5	2173.1		
1371.16	115.45	2182.81		
1371.21	115.4	2129.44		
1371.26	115.35	2119.4		
1371.31	115.3	2187.06		
1371.36	115.25	2188.13		
1371.41	115.2	2200.62		
1371.46	115.15	2174.2		
1371.51	115.1	2159.77		
1371.56	115.05	2205.87		
1371.61	115	2174.66		
1371.66	114.95	2179.05		
1371.71	114.9	2173.67		
1371.76	114.85	2142.74		
1371.81	114.8	2165.6		
1371.86	114.75	2195.44		
1371.91	114.7	2198.46		
1371.96	114.65	2234.1		
1372.01	114.6	2258.28		
1372.06	114.55	2192.83		
1372.11	114.5	2214.29		
1372.16	114.45	2168.9		
1372.21	114.4	2180.73		
1372.26	114.35	2197.43		
1372.31	114.3	2152.06		
1372.36	114.25	2155.77		
1372.41	114.2	2138.34		
1372.46	114.15	2189.66		
1372.51	114.1	2172.06		
1372.56	114.05	2209.67		
1372.61	114	2196.36		
1372.66	113.95	2210.54		
1372.71	113.9	2168.29		
1372.76	113.85	2187.66		
1372.81	113.8	2182.36		
1372.86	113.75	2232.04		
1372.91	113.7	2215.68		
1372.96	113.65	2159.32		
1373.01	113.6	2250.08		
1373.06	113.55	2218.81		
1373.11	113.5	2226.86		
1373.16	113.45	2259.09		
1373.21	113.4	2277.77		
1373.26	113.35	2185.61		
1373.31	113.3	2241.45		
1373.36	113.25	2206.79		
1373.41	113.2	2215.07		
1373.46	113.15	2201.57		
1373.51	113.1	2173.04		
1373.56	113.05	2163.9		
1373.61	113	2244.76		
1373.66	112.95	2198.84		
1373.71	112.9	2254.7		
1373.76	112.85	2231.71		
1373.81	112.8	2186.51		
1373.86	112.75	2148.41		
1373.91	112.7	2237.61		
1373.96	112.65	2271.22		
1374.01	112.6	2220.35		
1374.06	112.55	2231.73		
1374.11	112.5	2226.71		
1374.16	112.45	2253.92		
1374.21	112.4	2242.84		
1374.26	112.35	2258.14		
1374.31	112.3	2212.1		
1374.36	112.25	2201.22		
1374.41	112.2	2221.15		
1374.46	112.15	2247.97		
1374.51	112.1	2247.25		
1374.56	112.05	2244.05		
1374.61	112	2288.03		
1374.66	111.95	2271.07		
1374.71	111.9	2219.35		
1374.76	111.85	2230.63		
1374.81	111.8	2222.67		
1374.86	111.75	2257		
1374.91	111.7	2246.58		
1374.96	111.65	2234.89		
1375.01	111.6	2251		
1375.06	111.55	2279.51		
1375.11	111.5	2303.11		
1375.16	111.45	2242.84		
1375.21	111.4	2228.91		
1375.26	111.35	2242.01		
1375.31	111.3	2249.18		
1375.36	111.25	2255.52		
1375.41	111.2	2257.73		
1375.46	111.15	2186.36		
1375.51	111.1	2263.17		
1375.56	111.05	2198.37		
1375.61	111	2257.91		
1375.66	110.95	2245.87		
1375.71	110.9	2228.01		
1375.76	110.85	2261.68		
1375.81	110.8	2314.13		
1375.86	110.75	2261.07		
1375.91	110.7	2276.52		
1375.96	110.65	2252.98		
1376.01	110.6	2236.93		
1376.06	110.55	2246.97		
1376.11	110.5	2260.29		
1376.16	110.45	2249.47		
1376.21	110.4	2207.68		
1376.26	110.35	2239.19		
1376.31	110.3	2211.08		
1376.36	110.25	2262.18		
1376.41	110.2	2254.89		
1376.46	110.15	2229.23		
1376.51	110.1	2255.86		
1376.56	110.05	2214.42		
1376.61	110	2229.64		
1376.66	109.95	2251.38		
1376.71	109.9	2203.27		
1376.76	109.85	2207.85		
1376.81	109.8	2241.62		
1376.86	109.75	2271.63		
1376.91	109.7	2243.08		
1376.96	109.65	2227.56		
1377.01	109.6	2229.71		
1377.06	109.55	2251.54		
1377.11	109.5	2260.96		
1377.16	109.45	2249.26		
1377.21	109.4	2253.25		
1377.26	109.35	2234.51		
1377.31	109.3	2185.99		
1377.36	109.25	2214.5		
1377.41	109.2	2238.78		
1377.46	109.15	2264.01		
1377.51	109.1	2240.57		
1377.56	109.05	2234.55		
1377.61	109	2196.42		
1377.66	108.95	2212.12		
1377.71	108.9	2201.44		
1377.76	108.85	2167.87		
1377.81	108.8	2186.52		
1377.86	108.75	2178.15		
1377.91	108.7	2180.47		
1377.96	108.65	2174.39		
1378.01	108.6	2154.56		
1378.06	108.55	2182.57		
1378.11	108.5	2170.16		
1378.16	108.45	2197.8		
1378.21	108.4	2158.01		
1378.26	108.35	2177.69		
1378.31	108.3	2186.18		
1378.36	108.25	2149.54		
1378.41	108.2	2186.62		
1378.46	108.15	2204.71		
1378.51	108.1	2198.94		
1378.56	108.05	2180.63		
1378.61	108	2199.39		
1378.66	107.95	2176.8		
1378.71	107.9	2108.62		
1378.76	107.85	2178.72		
1378.81	107.8	2176.1		
1378.86	107.75	2162.01		
1378.91	107.7	2161.17		
1378.96	107.65	2154.61		
1379.01	107.6	2108.64		
1379.06	107.55	2145.34		
1379.11	107.5	2133.51		
1379.16	107.45	2172.65		
1379.21	107.4	2137.58		
1379.26	107.35	2160.12		
1379.31	107.3	2166.29		
1379.36	107.25	2163.12		
1379.41	107.2	2107.86		
1379.46	107.15	2109.66		
1379.51	107.1	2147.66		
1379.56	107.05	2082.93		
1379.61	107	2082.67		
1379.66	106.95	2151.34		
1379.71	106.9	2163.56		
1379.76	106.85	2114.77		
1379.81	106.8	2117.76		
1379.86	106.75	2148.02		
1379.91	106.7	2114.52		
1379.96	106.65	2105.39		
1380.01	106.6	2100.99		
1380.06	106.55	2077.3		
1380.11	106.5	2087.51		
1380.16	106.45	2101.37		
1380.21	106.4	2109.41		
1380.26	106.35	2098.49		
1380.31	106.3	2108.11		
1380.36	106.25	2081.01		
1380.41	106.2	2101.02		
1380.46	106.15	2105.54		
1380.51	106.1	2066.7		
1380.56	106.05	2104.96		
1380.61	106	2112.95		
1380.66	105.95	2041.47		
1380.71	105.9	2078.31		
1380.76	105.85	2073.53		
1380.81	105.8	2028.47		
1380.86	105.75	2088.91		
1380.91	105.7	2077.92		
1380.96	105.65	2060.17		
1381.01	105.6	2055.19		
1381.06	105.55	2032.5		
1381.11	105.5	2054.95		
1381.16	105.45	2070.04		
1381.21	105.4	2118.76		
1381.26	105.35	2039.35		
1381.31	105.3	2069.66		
1381.36	105.25	2094.12		
1381.41	105.2	2098.35		
1381.46	105.15	2025.04		
1381.51	105.1	2118.86		
1381.56	105.05	2067.35		
1381.61	105	2062.92		
1381.66	104.95	2079.07		
1381.71	104.9	2096.59		
1381.76	104.85	2088.39		
1381.81	104.8	2083.24		
1381.86	104.75	2074.28		
1381.91	104.7	2035.6		
1381.96	104.65	2076.98		
1382.01	104.6	2045.81		
1382.06	104.55	2089.96		
1382.11	104.5	2046.92		
1382.16	104.45	2056.63		
1382.21	104.4	2086.96		
1382.26	104.35	2121.28		
1382.31	104.3	2078.03		
1382.36	104.25	2084.24		
1382.41	104.2	2067.15		
1382.46	104.15	2069.66		
1382.51	104.1	2054.4		
1382.56	104.05	2039.61		
1382.61	104	2078.51		
1382.66	103.95	2067.38		
1382.71	103.9	2041.63		
1382.76	103.85	2090.32		
1382.81	103.8	2070.6		
1382.86	103.75	2055.31		
1382.91	103.7	2077.82		
1382.96	103.65	2114.48		
1383.01	103.6	2055.87		
1383.06	103.55	2023.36		
1383.11	103.5	2049.68		
1383.16	103.45	2051.9		
1383.21	103.4	2011.11		
1383.26	103.35	2021.99		
1383.31	103.3	2043.67		
1383.36	103.25	2068.85		
1383.41	103.2	2056.7		
1383.46	103.15	2072.12		
1383.51	103.1	2028.73		
1383.56	103.05	2053.94		
1383.61	103	2061.36		
1383.66	102.95	2081.81		
1383.71	102.9	2023.18		
1383.76	102.85	2042.08		
1383.81	102.8	2071.88		
1383.86	102.75	2098.54		
1383.91	102.7	2077.43		
1383.96	102.65	2044.84		
1384.01	102.6	2059.09		
1384.06	102.55	2120.82		
1384.11	102.5	2104.26		
1384.16	102.45	2090.43		
1384.21	102.4	2052.4		
1384.26	102.35	2057.77		
1384.31	102.3	1993.79		
1384.36	102.25	1996.25		
1384.41	102.2	2045.64		
1384.46	102.15	2064.79		
1384.51	102.1	2097.54		
1384.56	102.05	2107.78		
1384.61	102	2075.42		
1384.66	101.95	2109.5		
1384.71	101.9	2051.05		
1384.76	101.85	2066.92		
1384.81	101.8	2057.75		
1384.86	101.75	2050.09		
1384.91	101.7	2062.45		
1384.96	101.65	2044.78		
1385.01	101.6	2075.63		
1385.06	101.55	2040.37		
1385.11	101.5	2069.27		
1385.16	101.45	2057.71		
1385.21	101.4	2072.27		
1385.26	101.35	2052.35		
1385.31	101.3	2088.52		
1385.36	101.25	2061.14		
1385.41	101.2	2035.7		
1385.46	101.15	2049.29		
1385.51	101.1	2098.46		
1385.56	101.05	2061.96		
1385.61	101	2055.1		
1385.66	100.95	2048.78		
1385.71	100.9	2095.12		
1385.76	100.85	2098.9		
1385.81	100.8	2093.64		
1385.86	100.75	2088.45		
1385.91	100.7	2108.17		
1385.96	100.65	2081.35		
1386.01	100.6	2088.75		
1386.06	100.55	2111.05		
1386.11	100.5	2091.58		
1386.16	100.45	2072.26		
1386.21	100.4	2103.1		
1386.26	100.35	2081.45		
1386.31	100.3	2108.07		
1386.36	100.25	2076.51		
1386.41	100.2	2076.24		
1386.46	100.15	2071.01		
1386.51	100.1	2080.88		
1386.56	100.05	2107.49		
1386.61	100	2103.42		
1386.66	99.95	2079.16		
1386.71	99.9	2066.84		
1386.76	99.85	2116.52		
1386.81	99.8	2126.98		
1386.86	99.75	2075.38		
1386.91	99.7	2080		
1386.96	99.65	2098.34		
1387.01	99.6	2063.77		
1387.06	99.55	2125.59		
1387.11	99.5	2076.59		
1387.16	99.45	2032.23		
1387.21	99.4	2040.56		
1387.26	99.35	2086.62		
1387.31	99.3	2133.57		
1387.36	99.25	2062.93		
1387.41	99.2	2059.12		
1387.46	99.15	2093.4		
1387.51	99.1	2127.49		
1387.56	99.05	2118.79		
1387.61	99	2113.87		
1387.66	98.95	2116.27		
1387.71	98.9	2096.35		
1387.76	98.85	2089.06		
1387.81	98.8	2087.91		
1387.86	98.75	2084.61		
1387.91	98.7	2096.7		
1387.96	98.65	2080.95		
1388.01	98.6	2078.49		
1388.06	98.55	2068.23		
1388.11	98.5	2072.17		
1388.16	98.45	2110.16		
1388.21	98.4	2091.82		
1388.26	98.35	2067.95		
1388.31	98.3	2109.61		
1388.36	98.25	2022.46		
1388.41	98.2	2084.23		
1388.46	98.15	2074.81		
1388.51	98.1	2064.69		
1388.56	98.05	2029.46		
1388.61	98	2047.89		
1388.66	97.95	2082.68		
1388.71	97.9	2081.74		
1388.76	97.85	2107.39		
1388.81	97.8	2027.12		
1388.86	97.75	2042.31		
1388.91	97.7	2075.46		
1388.96	97.65	2077.54		
1389.01	97.6	2049.68		
1389.06	97.55	2059.99		
1389.11	97.5	2053.54		
1389.16	97.45	2033.88		
1389.21	97.4	2053.68		
1389.26	97.35	2031.65		
1389.31	97.3	2057.03		
1389.36	97.25	2064.24		
1389.41	97.2	2038.87		
1389.46	97.15	2062.13		
1389.51	97.1	2047.31		
1389.56	97.05	2020.01		
1389.61	97	2018.72		
1389.66	96.95	2078.28		
1389.71	96.9	2006.65		
1389.76	96.85	2013.82		
1389.81	96.8	2003.65		
1389.86	96.75	1964.59		
1389.91	96.7	1984.17		
1389.96	96.65	1973.7		
1390.01	96.6	1982.3		
1390.06	96.55	1976.7		
1390.11	96.5	2007.31		
1390.16	96.45	1996.88		
1390.21	96.4	1969.34		
1390.26	96.35	1968.88		
1390.31	96.3	1955.37		
1390.36	96.25	1916.63		
1390.41	96.2	2008.85		
1390.46	96.15	2011.7		
1390.51	96.1	1968		
1390.56	96.05	1958.6		
1390.61	96	1963.67		
1390.66	95.95	1941.49		
1390.71	95.9	1970.13		
1390.76	95.85	1956.67		
1390.81	95.8	1950.86		
1390.86	95.75	1963.36		
1390.91	95.7	1966.87		
1390.96	95.65	1987.58		
1391.01	95.6	1953.91		
1391.06	95.55	1988.53		
1391.11	95.5	1968.58		
1391.16	95.45	1997.37		
1391.21	95.4	1992.05		
1391.26	95.35	2004.88		
1391.31	95.3	2019.26		
1391.36	95.25	1990.62		
1391.41	95.2	1960.32		
1391.46	95.15	1989.31		
1391.51	95.1	1985.99		
1391.56	95.05	1977.46		
1391.61	95	1995.39		
1391.66	94.95	1980.42		
1391.71	94.9	2027.06		
1391.76	94.85	2041.61		
1391.81	94.8	1981.15		
1391.86	94.75	2018.88		
1391.91	94.7	1954.3		
1391.96	94.65	1933.07		
1392.01	94.6	1958.92		
1392.06	94.55	1948.05		
1392.11	94.5	2007.71		
1392.16	94.45	1990.87		
1392.21	94.4	2018.41		
1392.26	94.35	1997.57		
1392.31	94.3	2019.32		
1392.36	94.25	2012.29		
1392.41	94.2	2030.08		
1392.46	94.15	1988.87		
1392.51	94.1	1994.56		
1392.56	94.05	2044.91		
1392.61	94	2025.81		
1392.66	93.95	1991.62		
1392.71	93.9	1986.41		
1392.76	93.85	2014.47		
1392.81	93.8	2020.27		
1392.86	93.75	1995.77		
1392.91	93.7	2013.54		
1392.96	93.65	2001.46		
1393.01	93.6	2014.66		
1393.06	93.55	2014.66		
1393.11	93.5	1994.41		
1393.16	93.45	1972.75		
1393.21	93.4	1960.17		
1393.26	93.35	1956.93		
1393.31	93.3	1974.48		
1393.36	93.25	2002.34		
1393.41	93.2	2026.57		
1393.46	93.15	1991.02		
1393.51	93.1	2000.19		
1393.56	93.05	1999.11		
1393.61	93	1958.91		
1393.66	92.95	1964.02		
1393.71	92.9	1965.98		
1393.76	92.85	1933.9		
1393.81	92.8	1976.48		
1393.86	92.75	1954.92		
1393.91	92.7	1932.09		
1393.96	92.65	1937.51		
1394.01	92.6	1927.36		
1394.06	92.55	1930.13		
1394.11	92.5	1944.89		
1394.16	92.45	1894.59		
1394.21	92.4	1900.36		
1394.26	92.35	1952.56		
1394.31	92.3	1934.71		
1394.36	92.25	1961.1		
1394.41	92.2	1981.63		
1394.46	92.15	1985.11		
1394.51	92.1	1951.61		
1394.56	92.05	1975.82		
1394.61	92	1966.8		
1394.66	91.95	1977.13		
1394.71	91.9	2003.5		
1394.76	91.85	1965.21		
1394.81	91.8	2002.46		
1394.86	91.75	1999.03		
1394.91	91.7	2035.18		
1394.96	91.65	2033.58		
1395.01	91.6	2015.55		
1395.06	91.55	2031.49		
1395.11	91.5	2064.42		
1395.16	91.45	2095.43		
1395.21	91.4	2086.15		
1395.26	91.35	2093.41		
1395.31	91.3	2072.74		
1395.36	91.25	2098.91		
1395.41	91.2	2103.15		
1395.46	91.15	2103.72		
1395.51	91.1	2091.24		
1395.56	91.05	2146.67		
1395.61	91	2117.27		
1395.66	90.95	2109.09		
1395.71	90.9	2173.76		
1395.76	90.85	2211.27		
1395.81	90.8	2188.96		
1395.86	90.75	2192.82		
1395.91	90.7	2219.36		
1395.96	90.65	2210.06		
1396.01	90.6	2287.15		
1396.06	90.55	2287.58		
1396.11	90.5	2257.25		
1396.16	90.45	2314.6		
1396.21	90.4	2270		
1396.26	90.35	2300.07		
1396.31	90.3	2281.75		
1396.36	90.25	2293.05		
1396.41	90.2	2306.21		
1396.46	90.15	2295.39		
1396.51	90.1	2250.45		
1396.56	90.05	2302.39		
1396.61	90	2288.97		
1396.66	89.95	2316.36		
1396.71	89.9	2336.38		
1396.76	89.85	2375.89		
1396.81	89.8	2366.99		
1396.86	89.75	2326.01		
1396.91	89.7	2362.92		
1396.96	89.65	2418.93		
1397.01	89.6	2507.54		
1397.06	89.55	2466.42		
1397.11	89.5	2487.39		
1397.16	89.45	2573.23		
1397.21	89.4	2630.99		
1397.26	89.35	2612.6		
1397.31	89.3	2650.5		
1397.36	89.25	2701.19		
1397.41	89.2	2813.35		
1397.46	89.15	2888.84		
1397.51	89.1	3036.44		
1397.56	89.05	3168.03		
1397.61	89	3144.85		
1397.66	88.95	3361.59		
1397.71	88.9	3542.76		
1397.76	88.85	3761.65		
1397.81	88.8	3953.14		
1397.86	88.75	4235.64		
1397.91	88.7	4538.77		
1397.96	88.65	4821.83		
1398.01	88.6	5311.62		
1398.06	88.55	5771.25		
1398.11	88.5	6265.32		
1398.16	88.45	6961.13		
1398.21	88.4	7735.81		
1398.26	88.35	8650.77		
1398.31	88.3	9513.73		
1398.36	88.25	10691.4		
1398.41	88.2	12013.1		
1398.46	88.15	13160.5		
1398.51	88.1	14681.7		
1398.56	88.05	16192.7		
1398.61	88	17904.1		
1398.66	87.95	19298.1		
1398.71	87.9	20757.5		
1398.76	87.85	21883.2		
1398.81	87.8	22574.1		
1398.86	87.75	22843.6		
1398.91	87.7	22510.3		
1398.96	87.65	21902.1		
1399.01	87.6	20708.7		
1399.06	87.55	19142.4		
1399.11	87.5	17511.6		
1399.16	87.45	15641.8		
1399.21	87.4	13934.6		
1399.26	87.35	12252.7		
1399.31	87.3	10718.3		
1399.36	87.25	9388.42		
1399.41	87.2	8147.69		
1399.46	87.15	7054.92		
1399.51	87.1	6285.6		
1399.56	87.05	5564.59		
1399.61	87	4876.47		
1399.66	86.95	4404.28		
1399.71	86.9	4079.9		
1399.76	86.85	3750.46		
1399.81	86.8	3443.1		
1399.86	86.75	3225.56		
1399.91	86.7	3075.87		
1399.96	86.65	2907.06		
1400.01	86.6	2813.43		
1400.06	86.55	2704.87		
1400.11	86.5	2601.59		
1400.16	86.45	2479.59		
1400.21	86.4	2431.88		
1400.26	86.35	2399.54		
1400.31	86.3	2403.44		
1400.36	86.25	2325.61		
1400.41	86.2	2305.36		
1400.46	86.15	2230.51		
1400.51	86.1	2175.47		
1400.56	86.05	2244.98		
1400.61	86	2203.82		
1400.66	85.95	2220.78		
1400.71	85.9	2238.69		
1400.76	85.85	2242.02		
1400.81	85.8	2319.08		
1400.86	85.75	2342.28		
1400.91	85.7	2335.02		
1400.96	85.65	2412.01		
1401.01	85.6	2485.9		
1401.06	85.55	2547.31		
1401.11	85.5	2603.65		
1401.16	85.45	2696.87		
1401.21	85.4	2808.54		
1401.26	85.35	2965.21		
1401.31	85.3	3100		
1401.36	85.25	3306.12		
1401.41	85.2	3446.39		
1401.46	85.15	3724.92		
1401.51	85.1	4033.43		
1401.56	85.05	4384.4		
1401.61	85	4740.12		
1401.66	84.95	5199.94		
1401.71	84.9	5754.3		
1401.76	84.85	6489.56		
1401.81	84.8	7301.88		
1401.86	84.75	8126.51		
1401.91	84.7	9142.27		
1401.96	84.65	10301.7		
1402.01	84.6	11543.3		
1402.06	84.55	13188.1		
1402.11	84.5	14782.9		
1402.16	84.45	16681		
1402.21	84.4	18514.6		
1402.26	84.35	20605.5		
1402.31	84.3	22723.3		
1402.36	84.25	24665.2		
1402.41	84.2	26351.1		
1402.46	84.15	27584.5		
1402.51	84.1	28397.9		
1402.56	84.05	28368.3		
1402.61	84	27802.5		
1402.66	83.95	26505.2		
1402.71	83.9	24624.5		
1402.76	83.85	22562.4		
1402.81	83.8	20083.2		
1402.86	83.75	17582.4		
1402.91	83.7	15242.6		
1402.96	83.65	13138.8		
1403.01	83.6	11279.6		
1403.06	83.55	9594.13		
1403.11	83.5	8112.99		
1403.16	83.45	6929.34		
1403.21	83.4	5917.87		
1403.26	83.35	4997.13		
1403.31	83.3	4280.62		
1403.36	83.25	3693.27		
1403.41	83.2	3281		
1403.46	83.15	2894.35		
1403.51	83.1	2556.41		
1403.56	83.05	2253.26		
1403.61	83	2072.71		
1403.66	82.95	1920.31		
1403.71	82.9	1756.72		
1403.76	82.85	1617.82		
1403.81	82.8	1524.87		
1403.86	82.75	1404.19		
1403.91	82.7	1334.89		
1403.96	82.65	1271.22		
1404.01	82.6	1232.26		
1404.06	82.55	1167.81		
1404.11	82.5	1140.27		
1404.16	82.45	1051.01		
1404.21	82.4	1015.62		
1404.26	82.35	970.104		
1404.31	82.3	933.177		
1404.36	82.25	924.462		
1404.41	82.2	867.192		
1404.46	82.15	857.006		
1404.51	82.1	830.823		
1404.56	82.05	819.265		
1404.61	82	788.379		
1404.66	81.95	745.487		
1404.71	81.9	765.889		
1404.76	81.85	732.388		
1404.81	81.8	738.478		
1404.86	81.75	718.536		
1404.91	81.7	697.398		
1404.96	81.65	698.868		
1405.01	81.6	700.873		
1405.06	81.55	667.532		
1405.11	81.5	626.885		
1405.16	81.45	622.028		
1405.21	81.4	635.677		
1405.26	81.35	643.11		
1405.31	81.3	642.886		
1405.36	81.25	615.219		
1405.41	81.2	620.429		
1405.46	81.15	619.668		
1405.51	81.1	576.77		
1405.56	81.05	559.491		
1405.61	81	569.33		
1405.66	80.95	577.195		
1405.71	80.9	575.078		
1405.76	80.85	567.406		
1405.81	80.8	567.109		
1405.86	80.75	558.692		
1405.91	80.7	545.967		
1405.96	80.65	553.346		
1406.01	80.6	540.813		
1406.06	80.55	533.929		
1406.11	80.5	522.829		
1406.16	80.45	533.019		
1406.21	80.4	505.111		
1406.26	80.35	515.215		
1406.31	80.3	538.765		
1406.36	80.25	517.921		
1406.41	80.2	522.462		
1406.46	80.15	533.477		
1406.51	80.1	520.048		
1406.56	80.05	502.278		
1406.61	80	493.873		
1406.66	79.95	480.052		
1406.71	79.9	482.778		
1406.76	79.85	490.866		
1406.81	79.8	499.206		
1406.86	79.75	491.971		
1406.91	79.7	483.484		
1406.96	79.65	490.143		
1407.01	79.6	477.684		
1407.06	79.55	500.289		
1407.11	79.5	509.259		
1407.16	79.45	469.278		
1407.21	79.4	488.914		
1407.26	79.35	484.656		
1407.31	79.3	478.595		
1407.36	79.25	458.67		
1407.41	79.2	464.399		
1407.46	79.15	476.454		
1407.51	79.1	463.366		
1407.56	79.05	468.414		
1407.61	79	467.506		
1407.66	78.95	477.508		
1407.71	78.9	487.739		
1407.76	78.85	468.865		
1407.81	78.8	463.693		
1407.86	78.75	451.537		
1407.91	78.7	467.389		
1407.96	78.65	473.12		
1408.01	78.6	459.487		
1408.06	78.55	471.386		
1408.11	78.5	452.453		
1408.16	78.45	448.732		
1408.21	78.4	427.514		
1408.26	78.35	451.669		
1408.31	78.3	447.126		
1408.36	78.25	481.88		
1408.41	78.2	472.916		
1408.46	78.15	450.633		
1408.51	78.1	445.83		
1408.56	78.05	475.673		
1408.61	78	455.147		
1408.66	77.95	442.886		
1408.71	77.9	465.778		
1408.76	77.85	448.083		
1408.81	77.8	468.027		
1408.86	77.75	483.323		
1408.91	77.7	459.298		
1408.96	77.65	467.825		
1409.01	77.6	451.198		
1409.06	77.55	441.192		
1409.11	77.5	461.679		
1409.16	77.45	468.258		
1409.21	77.4	476.789		
1409.26	77.35	481.497		
1409.31	77.3	471.608		
1409.36	77.25	482.058		
1409.41	77.2	472.699		
1409.46	77.15	457.932		
1409.51	77.1	473.555		
1409.56	77.05	487.07		
1409.61	77	466.668		
1409.66	76.95	467.973		
1409.71	76.9	478.485		
1409.76	76.85	494.054		
1409.81	76.8	477.713		
1409.86	76.75	476.828		
1409.91	76.7	472.4		
1409.96	76.65	484.897		
1410.01	76.6	483.451		
1410.06	76.55	467.65		
1410.11	76.5	462.09		
1410.16	76.45	488.28		
1410.21	76.4	501.339		
1410.26	76.35	487.342		
1410.31	76.3	475.997		
1410.36	76.25	495.246		
1410.41	76.2	497.308		
1410.46	76.15	490.518		
1410.51	76.1	497.695		
1410.56	76.05	502.048		
1410.61	76	511.264		
1410.66	75.95	509.906		
1410.71	75.9	507.148		
1410.76	75.85	506.531		
1410.81	75.8	487.97		
1410.86	75.75	497.238		
1410.91	75.7	502.519		
1410.96	75.65	508.161		
1411.01	75.6	511.794		
1411.06	75.55	516.133		
1411.11	75.5	502.91		
1411.16	75.45	500.145		
1411.21	75.4	527.074		
1411.26	75.35	503.472		
1411.31	75.3	495.397		
1411.36	75.25	504.619		
1411.41	75.2	516.513		
1411.46	75.15	527.396		
1411.51	75.1	517.926		
1411.56	75.05	517.313		
1411.61	75	504.772		
