c:\users\mark\owncloud\muelheim group\projects\gas phase background\au in n2 300um nozzle\20180228 au gas phase background in n2 - au4f.vms				
Counts per Second				
	Characteristic Energy eV	1486.61	Acquisition Time s	1
KE_Counts per Second	BE_Counts per Second	CPS_Counts per Second		
1306.61	180	1749.09		
1306.71	179.9	1701.72		
1306.81	179.8	1742.13		
1306.91	179.7	1777.65		
1307.01	179.6	1751.9		
1307.11	179.5	1724.2		
1307.21	179.4	1705.87		
1307.31	179.3	1742.01		
1307.41	179.2	1756.58		
1307.51	179.1	1739.05		
1307.61	179	1712.63		
1307.71	178.9	1750.29		
1307.81	178.8	1818.04		
1307.91	178.7	1782.95		
1308.01	178.6	1744.74		
1308.11	178.5	1779.63		
1308.21	178.4	1787.32		
1308.31	178.3	1766.84		
1308.41	178.2	1753.53		
1308.51	178.1	1749.7		
1308.61	178	1754.52		
1308.71	177.9	1759.68		
1308.81	177.8	1758.03		
1308.91	177.7	1743.87		
1309.01	177.6	1741.68		
1309.11	177.5	1769.09		
1309.21	177.4	1778.07		
1309.31	177.3	1705.8		
1309.41	177.2	1744.25		
1309.51	177.1	1778.12		
1309.61	177	1780.51		
1309.71	176.9	1768.17		
1309.81	176.8	1751.57		
1309.91	176.7	1738.31		
1310.01	176.6	1733.59		
1310.11	176.5	1804.42		
1310.21	176.4	1775.39		
1310.31	176.3	1827.77		
1310.41	176.2	1761		
1310.51	176.1	1711.88		
1310.61	176	1742.63		
1310.71	175.9	1745.53		
1310.81	175.8	1724.83		
1310.91	175.7	1736.77		
1311.01	175.6	1783.73		
1311.11	175.5	1750.41		
1311.21	175.4	1743.63		
1311.31	175.3	1766.07		
1311.41	175.2	1773.93		
1311.51	175.1	1739.9		
1311.61	175	1786.34		
1311.71	174.9	1770.95		
1311.81	174.8	1817.75		
1311.91	174.7	1816.36		
1312.01	174.6	1784.13		
1312.11	174.5	1786.26		
1312.21	174.4	1729.35		
1312.31	174.3	1784.71		
1312.41	174.2	1765.32		
1312.51	174.1	1761.52		
1312.61	174	1746.56		
1312.71	173.9	1769.51		
1312.81	173.8	1729.19		
1312.91	173.7	1762.03		
1313.01	173.6	1832.29		
1313.11	173.5	1804.16		
1313.21	173.4	1764.89		
1313.31	173.3	1817.74		
1313.41	173.2	1825.99		
1313.51	173.1	1771.37		
1313.61	173	1783.12		
1313.71	172.9	1758.69		
1313.81	172.8	1757.8		
1313.91	172.7	1815.2		
1314.01	172.6	1847.02		
1314.11	172.5	1788.13		
1314.21	172.4	1777.55		
1314.31	172.3	1840.03		
1314.41	172.2	1813.96		
1314.51	172.1	1839.55		
1314.61	172	1761.24		
1314.71	171.9	1756.67		
1314.81	171.8	1795.48		
1314.91	171.7	1796.05		
1315.01	171.6	1794.7		
1315.11	171.5	1809.31		
1315.21	171.4	1783.67		
1315.31	171.3	1747.11		
1315.41	171.2	1774.25		
1315.51	171.1	1807.21		
1315.61	171	1809.45		
1315.71	170.9	1817.15		
1315.81	170.8	1806.62		
1315.91	170.7	1815.26		
1316.01	170.6	1788.04		
1316.11	170.5	1792.42		
1316.21	170.4	1770.02		
1316.31	170.3	1764.5		
1316.41	170.2	1780.61		
1316.51	170.1	1820.97		
1316.61	170	1769.12		
1316.71	169.9	1779.92		
1316.81	169.8	1797.03		
1316.91	169.7	1787.44		
1317.01	169.6	1759.79		
1317.11	169.5	1770.76		
1317.21	169.4	1822.45		
1317.31	169.3	1730.54		
1317.41	169.2	1782.67		
1317.51	169.1	1818.48		
1317.61	169	1798.7		
1317.71	168.9	1793.34		
1317.81	168.8	1810.34		
1317.91	168.7	1784.07		
1318.01	168.6	1793.35		
1318.11	168.5	1801.21		
1318.21	168.4	1794.12		
1318.31	168.3	1757.85		
1318.41	168.2	1766.67		
1318.51	168.1	1816.04		
1318.61	168	1795.65		
1318.71	167.9	1791.94		
1318.81	167.8	1762.1		
1318.91	167.7	1788.25		
1319.01	167.6	1805.49		
1319.11	167.5	1820.36		
1319.21	167.4	1750.34		
1319.31	167.3	1776.12		
1319.41	167.2	1778.27		
1319.51	167.1	1819.93		
1319.61	167	1818.46		
1319.71	166.9	1781.5		
1319.81	166.8	1819.83		
1319.91	166.7	1812.95		
1320.01	166.6	1821.13		
1320.11	166.5	1806.8		
1320.21	166.4	1769.82		
1320.31	166.3	1851.67		
1320.41	166.2	1831.55		
1320.51	166.1	1807.18		
1320.61	166	1823.34		
1320.71	165.9	1815.85		
1320.81	165.8	1794.3		
1320.91	165.7	1826.97		
1321.01	165.6	1778.8		
1321.11	165.5	1838.26		
1321.21	165.4	1863.48		
1321.31	165.3	1856.15		
1321.41	165.2	1831.67		
1321.51	165.1	1832.45		
1321.61	165	1854.85		
1321.71	164.9	1802.96		
1321.81	164.8	1815.74		
1321.91	164.7	1849.74		
1322.01	164.6	1811.26		
1322.11	164.5	1876.78		
1322.21	164.4	1886.02		
1322.31	164.3	1842.32		
1322.41	164.2	1787.53		
1322.51	164.1	1801.32		
1322.61	164	1796.55		
1322.71	163.9	1795.18		
1322.81	163.8	1860.9		
1322.91	163.7	1848.94		
1323.01	163.6	1837.1		
1323.11	163.5	1834.11		
1323.21	163.4	1806.11		
1323.31	163.3	1835.16		
1323.41	163.2	1809.13		
1323.51	163.1	1836.68		
1323.61	163	1862.5		
1323.71	162.9	1821.21		
1323.81	162.8	1828.66		
1323.91	162.7	1830.17		
1324.01	162.6	1854.3		
1324.11	162.5	1825.12		
1324.21	162.4	1872.66		
1324.31	162.3	1840.23		
1324.41	162.2	1881.7		
1324.51	162.1	1842.42		
1324.61	162	1855.28		
1324.71	161.9	1819.58		
1324.81	161.8	1862.84		
1324.91	161.7	1840.25		
1325.01	161.6	1884.65		
1325.11	161.5	1925.67		
1325.21	161.4	1864.75		
1325.31	161.3	1821.6		
1325.41	161.2	1813.58		
1325.51	161.1	1866.87		
1325.61	161	1838.7		
1325.71	160.9	1818.15		
1325.81	160.8	1855.73		
1325.91	160.7	1825.52		
1326.01	160.6	1834.39		
1326.11	160.5	1882.99		
1326.21	160.4	1812.94		
1326.31	160.3	1808.01		
1326.41	160.2	1804.34		
1326.51	160.1	1826.06		
1326.61	160	1821.68		
1326.71	159.9	1844.34		
1326.81	159.8	1838.98		
1326.91	159.7	1842.31		
1327.01	159.6	1841.35		
1327.11	159.5	1872.77		
1327.21	159.4	1843.81		
1327.31	159.3	1833.01		
1327.41	159.2	1866.61		
1327.51	159.1	1834.28		
1327.61	159	1878.75		
1327.71	158.9	1880.59		
1327.81	158.8	1820.19		
1327.91	158.7	1859.96		
1328.01	158.6	1862.4		
1328.11	158.5	1866.84		
1328.21	158.4	1860.5		
1328.31	158.3	1868.33		
1328.41	158.2	1850.74		
1328.51	158.1	1850.86		
1328.61	158	1957.01		
1328.71	157.9	1870.95		
1328.81	157.8	1868.31		
1328.91	157.7	1867.25		
1329.01	157.6	1881.56		
1329.11	157.5	1863.43		
1329.21	157.4	1853.81		
1329.31	157.3	1861.35		
1329.41	157.2	1861.85		
1329.51	157.1	1850.46		
1329.61	157	1836.96		
1329.71	156.9	1832.82		
1329.81	156.8	1864.21		
1329.91	156.7	1845.05		
1330.01	156.6	1862.1		
1330.11	156.5	1887.07		
1330.21	156.4	1888.18		
1330.31	156.3	1908.47		
1330.41	156.2	1881.81		
1330.51	156.1	1846.14		
1330.61	156	1835.36		
1330.71	155.9	1868.11		
1330.81	155.8	1857.6		
1330.91	155.7	1887.52		
1331.01	155.6	1895.05		
1331.11	155.5	1854.96		
1331.21	155.4	1907.75		
1331.31	155.3	1885.5		
1331.41	155.2	1917.82		
1331.51	155.1	1903.85		
1331.61	155	1878.48		
1331.71	154.9	1908.13		
1331.81	154.8	1883.64		
1331.91	154.7	1920.71		
1332.01	154.6	1898.86		
1332.11	154.5	1918.94		
1332.21	154.4	1895.29		
1332.31	154.3	1899.17		
1332.41	154.2	1913.8		
1332.51	154.1	1888.99		
1332.61	154	1938.93		
1332.71	153.9	1926.83		
1332.81	153.8	1883.51		
1332.91	153.7	1886.42		
1333.01	153.6	1908.55		
1333.11	153.5	1911.72		
1333.21	153.4	1882.22		
1333.31	153.3	1885.86		
1333.41	153.2	1869.7		
1333.51	153.1	1904.64		
1333.61	153	1955.16		
1333.71	152.9	1964.68		
1333.81	152.8	1917.06		
1333.91	152.7	1905.25		
1334.01	152.6	1926.53		
1334.11	152.5	1909.24		
1334.21	152.4	1903.66		
1334.31	152.3	1913.53		
1334.41	152.2	1931.14		
1334.51	152.1	1887.93		
1334.61	152	1860.12		
1334.71	151.9	1880.76		
1334.81	151.8	1885.08		
1334.91	151.7	1933.02		
1335.01	151.6	1975.95		
1335.11	151.5	1930.85		
1335.21	151.4	1914.88		
1335.31	151.3	1922		
1335.41	151.2	1893.17		
1335.51	151.1	1924.87		
1335.61	151	1890.04		
1335.71	150.9	1905.89		
1335.81	150.8	1946.59		
1335.91	150.7	1955.5		
1336.01	150.6	1926.84		
1336.11	150.5	1928.34		
1336.21	150.4	1966.46		
1336.31	150.3	1936.85		
1336.41	150.2	1869.15		
1336.51	150.1	1959.38		
1336.61	150	1902.1		
1336.71	149.9	1946.24		
1336.81	149.8	1913.94		
1336.91	149.7	1972.5		
1337.01	149.6	1904.22		
1337.11	149.5	1892.58		
1337.21	149.4	1898.86		
1337.31	149.3	1895.37		
1337.41	149.2	1897.34		
1337.51	149.1	1974.43		
1337.61	149	1961.32		
1337.71	148.9	1944.86		
1337.81	148.8	1934.08		
1337.91	148.7	1942.95		
1338.01	148.6	1979.17		
1338.11	148.5	1992.56		
1338.21	148.4	1934.61		
1338.31	148.3	1948.26		
1338.41	148.2	1953.69		
1338.51	148.1	1919.19		
1338.61	148	1908.63		
1338.71	147.9	1943.73		
1338.81	147.8	1980.22		
1338.91	147.7	1925.85		
1339.01	147.6	1960.63		
1339.11	147.5	1966		
1339.21	147.4	1941.54		
1339.31	147.3	1886.02		
1339.41	147.2	1953		
1339.51	147.1	1932.66		
1339.61	147	1974.64		
1339.71	146.9	1961.63		
1339.81	146.8	1941.14		
1339.91	146.7	2000.07		
1340.01	146.6	1950.8		
1340.11	146.5	1954.81		
1340.21	146.4	1954.25		
1340.31	146.3	1992.88		
1340.41	146.2	1992.12		
1340.51	146.1	1996.89		
1340.61	146	1979.27		
1340.71	145.9	1928.19		
1340.81	145.8	1920.37		
1340.91	145.7	1946.74		
1341.01	145.6	1966.5		
1341.11	145.5	1890.11		
1341.21	145.4	1941.32		
1341.31	145.3	1947.54		
1341.41	145.2	1929.06		
1341.51	145.1	1915.08		
1341.61	145	1981.57		
1341.71	144.9	1929.95		
1341.81	144.8	1927.39		
1341.91	144.7	1911.63		
1342.01	144.6	1940.4		
1342.11	144.5	1928.99		
1342.21	144.4	1943.29		
1342.31	144.3	1954.91		
1342.41	144.2	1974.65		
1342.51	144.1	1916.29		
1342.61	144	1928.46		
1342.71	143.9	1944.18		
1342.81	143.8	1920.75		
1342.91	143.7	1947.35		
1343.01	143.6	1961.13		
1343.11	143.5	1939.84		
1343.21	143.4	1928.15		
1343.31	143.3	1930.72		
1343.41	143.2	1973.48		
1343.51	143.1	2015.37		
1343.61	143	1946.23		
1343.71	142.9	1940.84		
1343.81	142.8	1963.84		
1343.91	142.7	1967.84		
1344.01	142.6	1981.53		
1344.11	142.5	1935.16		
1344.21	142.4	1966.09		
1344.31	142.3	2002.94		
1344.41	142.2	1955.87		
1344.51	142.1	1918.47		
1344.61	142	1917.32		
1344.71	141.9	1916.04		
1344.81	141.8	1961.91		
1344.91	141.7	1934.84		
1345.01	141.6	1979.51		
1345.11	141.5	1980.97		
1345.21	141.4	1976.04		
1345.31	141.3	1929.19		
1345.41	141.2	1949.37		
1345.51	141.1	1934.08		
1345.61	141	1933.2		
1345.71	140.9	1968.82		
1345.81	140.8	1961.55		
1345.91	140.7	1987.24		
1346.01	140.6	1970.16		
1346.11	140.5	1954.74		
1346.21	140.4	1941.39		
1346.31	140.3	1971.98		
1346.41	140.2	1922.65		
1346.51	140.1	1940.23		
1346.61	140	1988.47		
1346.71	139.9	1999.98		
1346.81	139.8	1963.09		
1346.91	139.7	1997.64		
1347.01	139.6	1976.78		
1347.11	139.5	1984.19		
1347.21	139.4	1993.58		
1347.31	139.3	2002.91		
1347.41	139.2	2009.3		
1347.51	139.1	1981.26		
1347.61	139	1958.05		
1347.71	138.9	1968.68		
1347.81	138.8	2034.98		
1347.91	138.7	1957.53		
1348.01	138.6	1965.65		
1348.11	138.5	2016.42		
1348.21	138.4	2012.91		
1348.31	138.3	1975.81		
1348.41	138.2	2016.24		
1348.51	138.1	1960.29		
1348.61	138	1986.31		
1348.71	137.9	1934.84		
1348.81	137.8	1959.1		
1348.91	137.7	2034.51		
1349.01	137.6	1999.43		
1349.11	137.5	2038.67		
1349.21	137.4	2044.48		
1349.31	137.3	1992.34		
1349.41	137.2	1945.09		
1349.51	137.1	2009.83		
1349.61	137	2016.73		
1349.71	136.9	2015.47		
1349.81	136.8	2026.14		
1349.91	136.7	2020.33		
1350.01	136.6	1964.74		
1350.11	136.5	1976.53		
1350.21	136.4	2008.47		
1350.31	136.3	2001.93		
1350.41	136.2	2016.76		
1350.51	136.1	2027.1		
1350.61	136	2009.33		
1350.71	135.9	2002.7		
1350.81	135.8	2011.85		
1350.91	135.7	2023.66		
1351.01	135.6	2079.16		
1351.11	135.5	2081.2		
1351.21	135.4	1995.23		
1351.31	135.3	2046.15		
1351.41	135.2	2000.34		
1351.51	135.1	2027.77		
1351.61	135	2037.43		
1351.71	134.9	2016.95		
1351.81	134.8	2022.67		
1351.91	134.7	2029.91		
1352.01	134.6	2012.98		
1352.11	134.5	1997.3		
1352.21	134.4	2007.69		
1352.31	134.3	2031.55		
1352.41	134.2	2066.82		
1352.51	134.1	2013.49		
1352.61	134	2025.95		
1352.71	133.9	2026.53		
1352.81	133.8	2059.5		
1352.91	133.7	2074.92		
1353.01	133.6	2065.79		
1353.11	133.5	1995.96		
1353.21	133.4	2035.39		
1353.31	133.3	2053.24		
1353.41	133.2	2040.24		
1353.51	133.1	2006.44		
1353.61	133	2085.49		
1353.71	132.9	2050.13		
1353.81	132.8	2045.57		
1353.91	132.7	2040.02		
1354.01	132.6	1990.29		
1354.11	132.5	2017.2		
1354.21	132.4	2044.39		
1354.31	132.3	2096.79		
1354.41	132.2	2134.64		
1354.51	132.1	2049.49		
1354.61	132	2070.41		
1354.71	131.9	2051.13		
1354.81	131.8	2061.79		
1354.91	131.7	2048.06		
1355.01	131.6	2025.38		
1355.11	131.5	2015.09		
1355.21	131.4	2059.86		
1355.31	131.3	2081.19		
1355.41	131.2	2105.06		
1355.51	131.1	2041.09		
1355.61	131	2035.84		
1355.71	130.9	2073.97		
1355.81	130.8	2097.64		
1355.91	130.7	2088.21		
1356.01	130.6	2079.27		
1356.11	130.5	2065.8		
1356.21	130.4	2098.63		
1356.31	130.3	2107.26		
1356.41	130.2	2031.47		
1356.51	130.1	2062.36		
1356.61	130	2061.88		
1356.66	129.95	2080.93		
1356.71	129.9	2111.91		
1356.76	129.85	2059.9		
1356.81	129.8	2088.15		
1356.86	129.75	2068.29		
1356.91	129.7	2057.53		
1356.96	129.65	2080.5		
1357.01	129.6	2142.9		
1357.06	129.55	2023.6		
1357.11	129.5	2053.07		
1357.16	129.45	2049.22		
1357.21	129.4	2063.69		
1357.26	129.35	2111.15		
1357.31	129.3	2138.99		
1357.36	129.25	2112.32		
1357.41	129.2	2032.73		
1357.46	129.15	2064.44		
1357.51	129.1	2073.12		
1357.56	129.05	2102.98		
1357.61	129	2097.06		
1357.66	128.95	2111.95		
1357.71	128.9	2121.49		
1357.76	128.85	2090.15		
1357.81	128.8	2085		
1357.86	128.75	2084.34		
1357.91	128.7	2114.88		
1357.96	128.65	2078.66		
1358.01	128.6	2095.5		
1358.06	128.55	2074.83		
1358.11	128.5	2069.18		
1358.16	128.45	2072.1		
1358.21	128.4	2086.5		
1358.26	128.35	2090.8		
1358.31	128.3	2124.25		
1358.36	128.25	2090.48		
1358.41	128.2	2087.21		
1358.46	128.15	2098.55		
1358.51	128.1	2090.16		
1358.56	128.05	2139.42		
1358.61	128	2147.78		
1358.66	127.95	2060.36		
1358.71	127.9	2106.2		
1358.76	127.85	2100.91		
1358.81	127.8	2112.19		
1358.86	127.75	2060.64		
1358.91	127.7	2099.36		
1358.96	127.65	2098.43		
1359.01	127.6	2075.41		
1359.06	127.55	2099.32		
1359.11	127.5	2149.44		
1359.16	127.45	2136.76		
1359.21	127.4	2108.81		
1359.26	127.35	2099.61		
1359.31	127.3	2067.19		
1359.36	127.25	2094.75		
1359.41	127.2	2092.13		
1359.46	127.15	2069.75		
1359.51	127.1	2125.11		
1359.56	127.05	2101.1		
1359.61	127	2140.21		
1359.66	126.95	2150.87		
1359.71	126.9	2120.67		
1359.76	126.85	2098.89		
1359.81	126.8	2157.57		
1359.86	126.75	2112.87		
1359.91	126.7	2067.3		
1359.96	126.65	2081.79		
1360.01	126.6	2104.68		
1360.06	126.55	2088.95		
1360.11	126.5	2081.96		
1360.16	126.45	2146.44		
1360.21	126.4	2145.45		
1360.26	126.35	2159.48		
1360.31	126.3	2132.16		
1360.36	126.25	2087.42		
1360.41	126.2	2109.47		
1360.46	126.15	2140.55		
1360.51	126.1	2192.1		
1360.56	126.05	2128.58		
1360.61	126	2143.48		
1360.66	125.95	2063.45		
1360.71	125.9	2107.35		
1360.76	125.85	2083.22		
1360.81	125.8	2092.91		
1360.86	125.75	2141.58		
1360.91	125.7	2113.46		
1360.96	125.65	2163.88		
1361.01	125.6	2160.75		
1361.06	125.55	2116.24		
1361.11	125.5	2106.28		
1361.16	125.45	2132.97		
1361.21	125.4	2111.19		
1361.26	125.35	2168.96		
1361.31	125.3	2166.13		
1361.36	125.25	2133.39		
1361.41	125.2	2144.56		
1361.46	125.15	2154.66		
1361.51	125.1	2121.2		
1361.56	125.05	2193.1		
1361.61	125	2164.23		
1361.66	124.95	2170.21		
1361.71	124.9	2158.18		
1361.76	124.85	2189.27		
1361.81	124.8	2203.26		
1361.86	124.75	2146.97		
1361.91	124.7	2146.5		
1361.96	124.65	2172.51		
1362.01	124.6	2150.73		
1362.06	124.55	2206.11		
1362.11	124.5	2179.65		
1362.16	124.45	2172.9		
1362.21	124.4	2144.32		
1362.26	124.35	2124.35		
1362.31	124.3	2129.54		
1362.36	124.25	2110.11		
1362.41	124.2	2185.39		
1362.46	124.15	2259.75		
1362.51	124.1	2177.6		
1362.56	124.05	2179.91		
1362.61	124	2201.43		
1362.66	123.95	2188.97		
1362.71	123.9	2180.67		
1362.76	123.85	2113.34		
1362.81	123.8	2192.07		
1362.86	123.75	2204.39		
1362.91	123.7	2181.46		
1362.96	123.65	2150.99		
1363.01	123.6	2151.5		
1363.06	123.55	2202.55		
1363.11	123.5	2224.12		
1363.16	123.45	2229.1		
1363.21	123.4	2230.59		
1363.26	123.35	2181.63		
1363.31	123.3	2156.81		
1363.36	123.25	2187.77		
1363.41	123.2	2175.8		
1363.46	123.15	2223.29		
1363.51	123.1	2166.82		
1363.56	123.05	2203.27		
1363.61	123	2211.53		
1363.66	122.95	2190.41		
1363.71	122.9	2222.65		
1363.76	122.85	2159.5		
1363.81	122.8	2192.28		
1363.86	122.75	2140.29		
1363.91	122.7	2225.58		
1363.96	122.65	2203.89		
1364.01	122.6	2187.36		
1364.06	122.55	2139.23		
1364.11	122.5	2204.79		
1364.16	122.45	2229.47		
1364.21	122.4	2218		
1364.26	122.35	2230.02		
1364.31	122.3	2224.17		
1364.36	122.25	2174.82		
1364.41	122.2	2192.55		
1364.46	122.15	2182.41		
1364.51	122.1	2227.41		
1364.56	122.05	2272.52		
1364.61	122	2231.85		
1364.66	121.95	2197.97		
1364.71	121.9	2180.7		
1364.76	121.85	2213.39		
1364.81	121.8	2229.83		
1364.86	121.75	2216.92		
1364.91	121.7	2308.18		
1364.96	121.65	2252.37		
1365.01	121.6	2219.39		
1365.06	121.55	2244.14		
1365.11	121.5	2233.01		
1365.16	121.45	2222.5		
1365.21	121.4	2219.93		
1365.26	121.35	2229.41		
1365.31	121.3	2273.7		
1365.36	121.25	2216.73		
1365.41	121.2	2219.13		
1365.46	121.15	2291.81		
1365.51	121.1	2255.45		
1365.56	121.05	2212.15		
1365.61	121	2233.14		
1365.66	120.95	2227.67		
1365.71	120.9	2242.96		
1365.76	120.85	2290.85		
1365.81	120.8	2243.42		
1365.86	120.75	2265.77		
1365.91	120.7	2282.33		
1365.96	120.65	2246.42		
1366.01	120.6	2279.79		
1366.06	120.55	2289.45		
1366.11	120.5	2285.75		
1366.16	120.45	2234.47		
1366.21	120.4	2246.89		
1366.26	120.35	2267.74		
1366.31	120.3	2283.3		
1366.36	120.25	2241.64		
1366.41	120.2	2271.87		
1366.46	120.15	2238.86		
1366.51	120.1	2223.78		
1366.56	120.05	2238.68		
1366.61	120	2226.19		
1366.66	119.95	2214.63		
1366.71	119.9	2286.75		
1366.76	119.85	2316.88		
1366.81	119.8	2306.57		
1366.86	119.75	2275.55		
1366.91	119.7	2252.07		
1366.96	119.65	2275.35		
1367.01	119.6	2247.08		
1367.06	119.55	2275.44		
1367.11	119.5	2277.2		
1367.16	119.45	2273.35		
1367.21	119.4	2266.45		
1367.26	119.35	2310.12		
1367.31	119.3	2271.82		
1367.36	119.25	2301.04		
1367.41	119.2	2224.24		
1367.46	119.15	2269.31		
1367.51	119.1	2235.32		
1367.56	119.05	2249.16		
1367.61	119	2248.16		
1367.66	118.95	2237.16		
1367.71	118.9	2251.47		
1367.76	118.85	2286.37		
1367.81	118.8	2330.72		
1367.86	118.75	2306.46		
1367.91	118.7	2326.14		
1367.96	118.65	2302.45		
1368.01	118.6	2264.76		
1368.06	118.55	2325.09		
1368.11	118.5	2224.16		
1368.16	118.45	2310.42		
1368.21	118.4	2290.79		
1368.26	118.35	2286.31		
1368.31	118.3	2281.22		
1368.36	118.25	2242.55		
1368.41	118.2	2290.76		
1368.46	118.15	2235.6		
1368.51	118.1	2236.73		
1368.56	118.05	2280.89		
1368.61	118	2300.57		
1368.66	117.95	2296.04		
1368.71	117.9	2311.75		
1368.76	117.85	2254.96		
1368.81	117.8	2231.48		
1368.86	117.75	2308.91		
1368.91	117.7	2307.85		
1368.96	117.65	2331.9		
1369.01	117.6	2311.95		
1369.06	117.55	2256.15		
1369.11	117.5	2243.92		
1369.16	117.45	2270		
1369.21	117.4	2287.7		
1369.26	117.35	2283.86		
1369.31	117.3	2296.59		
1369.36	117.25	2252.48		
1369.41	117.2	2294.08		
1369.46	117.15	2310.77		
1369.51	117.1	2245.04		
1369.56	117.05	2232.72		
1369.61	117	2312.11		
1369.66	116.95	2265.18		
1369.71	116.9	2287.28		
1369.76	116.85	2314.53		
1369.81	116.8	2303.1		
1369.86	116.75	2271.68		
1369.91	116.7	2261.2		
1369.96	116.65	2300.65		
1370.01	116.6	2245.77		
1370.06	116.55	2331.19		
1370.11	116.5	2320.62		
1370.16	116.45	2323.69		
1370.21	116.4	2274.63		
1370.26	116.35	2241.46		
1370.31	116.3	2263.71		
1370.36	116.25	2270.09		
1370.41	116.2	2267.04		
1370.46	116.15	2295.76		
1370.51	116.1	2294.83		
1370.56	116.05	2337.7		
1370.61	116	2348.04		
1370.66	115.95	2274.19		
1370.71	115.9	2311.79		
1370.76	115.85	2289.42		
1370.81	115.8	2311.01		
1370.86	115.75	2275.02		
1370.91	115.7	2293.85		
1370.96	115.65	2327.48		
1371.01	115.6	2293.98		
1371.06	115.55	2246.28		
1371.11	115.5	2325.24		
1371.16	115.45	2332.83		
1371.21	115.4	2312.43		
1371.26	115.35	2349.37		
1371.31	115.3	2300.21		
1371.36	115.25	2269.96		
1371.41	115.2	2303		
1371.46	115.15	2317.65		
1371.51	115.1	2333.57		
1371.56	115.05	2347.12		
1371.61	115	2308.88		
1371.66	114.95	2322.39		
1371.71	114.9	2362.3		
1371.76	114.85	2374.99		
1371.81	114.8	2301.71		
1371.86	114.75	2328.36		
1371.91	114.7	2372.51		
1371.96	114.65	2356.37		
1372.01	114.6	2302.81		
1372.06	114.55	2309.14		
1372.11	114.5	2328.97		
1372.16	114.45	2324.06		
1372.21	114.4	2293.29		
1372.26	114.35	2351.92		
1372.31	114.3	2312.25		
1372.36	114.25	2358.06		
1372.41	114.2	2364.48		
1372.46	114.15	2296.27		
1372.51	114.1	2319.88		
1372.56	114.05	2328.27		
1372.61	114	2351.47		
1372.66	113.95	2371.59		
1372.71	113.9	2324.9		
1372.76	113.85	2351.23		
1372.81	113.8	2366.13		
1372.86	113.75	2332.92		
1372.91	113.7	2408.29		
1372.96	113.65	2389.72		
1373.01	113.6	2369.02		
1373.06	113.55	2373.89		
1373.11	113.5	2321.46		
1373.16	113.45	2336.92		
1373.21	113.4	2326.52		
1373.26	113.35	2354.51		
1373.31	113.3	2393.19		
1373.36	113.25	2351.45		
1373.41	113.2	2333.78		
1373.46	113.15	2316.96		
1373.51	113.1	2347.41		
1373.56	113.05	2352.83		
1373.61	113	2334.72		
1373.66	112.95	2343.97		
1373.71	112.9	2292.72		
1373.76	112.85	2336.72		
1373.81	112.8	2354.42		
1373.86	112.75	2353.11		
1373.91	112.7	2330.55		
1373.96	112.65	2383.11		
1374.01	112.6	2377.88		
1374.06	112.55	2331.3		
1374.11	112.5	2364.03		
1374.16	112.45	2372.82		
1374.21	112.4	2373.4		
1374.26	112.35	2394.07		
1374.31	112.3	2404.11		
1374.36	112.25	2399.03		
1374.41	112.2	2366.25		
1374.46	112.15	2358.86		
1374.51	112.1	2369.82		
1374.56	112.05	2363.33		
1374.61	112	2364.74		
1374.66	111.95	2360.48		
1374.71	111.9	2379.24		
1374.76	111.85	2372.44		
1374.81	111.8	2339.71		
1374.86	111.75	2358.33		
1374.91	111.7	2381.39		
1374.96	111.65	2374.23		
1375.01	111.6	2412.99		
1375.06	111.55	2361.65		
1375.11	111.5	2382.68		
1375.16	111.45	2393.53		
1375.21	111.4	2418.66		
1375.26	111.35	2370.97		
1375.31	111.3	2382.9		
1375.36	111.25	2400.5		
1375.41	111.2	2403.38		
1375.46	111.15	2410.31		
1375.51	111.1	2388.07		
1375.56	111.05	2446.79		
1375.61	111	2435.99		
1375.66	110.95	2409.97		
1375.71	110.9	2363.91		
1375.76	110.85	2426.28		
1375.81	110.8	2398.35		
1375.86	110.75	2384.71		
1375.91	110.7	2372.32		
1375.96	110.65	2409.13		
1376.01	110.6	2417.37		
1376.06	110.55	2370.28		
1376.11	110.5	2370.51		
1376.16	110.45	2411.02		
1376.21	110.4	2430.39		
1376.26	110.35	2429.08		
1376.31	110.3	2434.18		
1376.36	110.25	2391.72		
1376.41	110.2	2378.62		
1376.46	110.15	2416.03		
1376.51	110.1	2346.36		
1376.56	110.05	2391.73		
1376.61	110	2373.21		
1376.66	109.95	2410.24		
1376.71	109.9	2373.11		
1376.76	109.85	2400.82		
1376.81	109.8	2401.01		
1376.86	109.75	2373.11		
1376.91	109.7	2369.69		
1376.96	109.65	2399.06		
1377.01	109.6	2401.52		
1377.06	109.55	2363.58		
1377.11	109.5	2357		
1377.16	109.45	2402.66		
1377.21	109.4	2390		
1377.26	109.35	2347.62		
1377.31	109.3	2357.35		
1377.36	109.25	2359.04		
1377.41	109.2	2328.83		
1377.46	109.15	2346.64		
1377.51	109.1	2340.56		
1377.56	109.05	2339.28		
1377.61	109	2360.14		
1377.66	108.95	2349.16		
1377.71	108.9	2327.72		
1377.76	108.85	2338.18		
1377.81	108.8	2329.24		
1377.86	108.75	2300.64		
1377.91	108.7	2290.7		
1377.96	108.65	2345.61		
1378.01	108.6	2341.43		
1378.06	108.55	2313.18		
1378.11	108.5	2320.25		
1378.16	108.45	2394.45		
1378.21	108.4	2294.47		
1378.26	108.35	2305.07		
1378.31	108.3	2329.93		
1378.36	108.25	2308.11		
1378.41	108.2	2300.14		
1378.46	108.15	2343.25		
1378.51	108.1	2315.06		
1378.56	108.05	2310.89		
1378.61	108	2322.47		
1378.66	107.95	2302.47		
1378.71	107.9	2261.4		
1378.76	107.85	2273.54		
1378.81	107.8	2343.44		
1378.86	107.75	2380.61		
1378.91	107.7	2293.48		
1378.96	107.65	2289.55		
1379.01	107.6	2271.35		
1379.06	107.55	2239.02		
1379.11	107.5	2257.72		
1379.16	107.45	2277.1		
1379.21	107.4	2272.65		
1379.26	107.35	2247.9		
1379.31	107.3	2249.49		
1379.36	107.25	2214.15		
1379.41	107.2	2233.84		
1379.46	107.15	2245.76		
1379.51	107.1	2218.12		
1379.56	107.05	2245.62		
1379.61	107	2243.5		
1379.66	106.95	2270.44		
1379.71	106.9	2235.61		
1379.76	106.85	2192.43		
1379.81	106.8	2177.78		
1379.86	106.75	2185.17		
1379.91	106.7	2238.17		
1379.96	106.65	2208.09		
1380.01	106.6	2198.48		
1380.06	106.55	2196.27		
1380.11	106.5	2218.97		
1380.16	106.45	2244.11		
1380.21	106.4	2217.08		
1380.26	106.35	2223.26		
1380.31	106.3	2215.64		
1380.36	106.25	2204.07		
1380.41	106.2	2193.35		
1380.46	106.15	2185.42		
1380.51	106.1	2183.51		
1380.56	106.05	2213.77		
1380.61	106	2175.96		
1380.66	105.95	2193.54		
1380.71	105.9	2188.9		
1380.76	105.85	2176.96		
1380.81	105.8	2172.51		
1380.86	105.75	2167.15		
1380.91	105.7	2162.92		
1380.96	105.65	2183.25		
1381.01	105.6	2175.34		
1381.06	105.55	2117.2		
1381.11	105.5	2209.71		
1381.16	105.45	2197.28		
1381.21	105.4	2141.31		
1381.26	105.35	2171.38		
1381.31	105.3	2175.86		
1381.36	105.25	2151.14		
1381.41	105.2	2151.35		
1381.46	105.15	2187.68		
1381.51	105.1	2200.32		
1381.56	105.05	2176.04		
1381.61	105	2159.46		
1381.66	104.95	2211.11		
1381.71	104.9	2220.39		
1381.76	104.85	2195.49		
1381.81	104.8	2157.66		
1381.86	104.75	2161.78		
1381.91	104.7	2124.87		
1381.96	104.65	2179.03		
1382.01	104.6	2151.84		
1382.06	104.55	2124.81		
1382.11	104.5	2123.76		
1382.16	104.45	2138.85		
1382.21	104.4	2173.37		
1382.26	104.35	2165.44		
1382.31	104.3	2175.15		
1382.36	104.25	2197.2		
1382.41	104.2	2184.55		
1382.46	104.15	2185.13		
1382.51	104.1	2186.24		
1382.56	104.05	2199.43		
1382.61	104	2177.71		
1382.66	103.95	2177.16		
1382.71	103.9	2159.25		
1382.76	103.85	2161.62		
1382.81	103.8	2195.78		
1382.86	103.75	2194.79		
1382.91	103.7	2186.93		
1382.96	103.65	2171.02		
1383.01	103.6	2130.47		
1383.06	103.55	2151.14		
1383.11	103.5	2206.51		
1383.16	103.45	2196.51		
1383.21	103.4	2177.72		
1383.26	103.35	2220.64		
1383.31	103.3	2220.75		
1383.36	103.25	2202.48		
1383.41	103.2	2200.51		
1383.46	103.15	2158.12		
1383.51	103.1	2192.68		
1383.56	103.05	2216.16		
1383.61	103	2193.58		
1383.66	102.95	2213.68		
1383.71	102.9	2241.21		
1383.76	102.85	2194.65		
1383.81	102.8	2179.67		
1383.86	102.75	2154.44		
1383.91	102.7	2234.65		
1383.96	102.65	2213.26		
1384.01	102.6	2243.9		
1384.06	102.55	2263.63		
1384.11	102.5	2195.78		
1384.16	102.45	2196.03		
1384.21	102.4	2235.38		
1384.26	102.35	2218.52		
1384.31	102.3	2198.79		
1384.36	102.25	2144.17		
1384.41	102.2	2214.93		
1384.46	102.15	2217.72		
1384.51	102.1	2253.63		
1384.56	102.05	2227.79		
1384.61	102	2263.8		
1384.66	101.95	2236.61		
1384.71	101.9	2226.33		
1384.76	101.85	2282.32		
1384.81	101.8	2240.35		
1384.86	101.75	2249.78		
1384.91	101.7	2261.54		
1384.96	101.65	2227.42		
1385.01	101.6	2200.49		
1385.06	101.55	2202.29		
1385.11	101.5	2250.42		
1385.16	101.45	2188.05		
1385.21	101.4	2165.44		
1385.26	101.35	2206.26		
1385.31	101.3	2205.2		
1385.36	101.25	2258.58		
1385.41	101.2	2262.46		
1385.46	101.15	2248.85		
1385.51	101.1	2259.34		
1385.56	101.05	2267.39		
1385.61	101	2258.17		
1385.66	100.95	2262.22		
1385.71	100.9	2252.11		
1385.76	100.85	2274		
1385.81	100.8	2285.3		
1385.86	100.75	2317.52		
1385.91	100.7	2261.36		
1385.96	100.65	2266.1		
1386.01	100.6	2285.51		
1386.06	100.55	2265.05		
1386.11	100.5	2287.48		
1386.16	100.45	2314.78		
1386.21	100.4	2307.84		
1386.26	100.35	2289.28		
1386.31	100.3	2305.8		
1386.36	100.25	2256.68		
1386.41	100.2	2293.48		
1386.46	100.15	2257.34		
1386.51	100.1	2240.34		
1386.56	100.05	2270.71		
1386.61	100	2297.08		
1386.66	99.95	2266.4		
1386.71	99.9	2289.9		
1386.76	99.85	2332.42		
1386.81	99.8	2314.08		
1386.86	99.75	2278.02		
1386.91	99.7	2324.15		
1386.96	99.65	2307.32		
1387.01	99.6	2256.38		
1387.06	99.55	2323.59		
1387.11	99.5	2307.37		
1387.16	99.45	2318.65		
1387.21	99.4	2285.58		
1387.26	99.35	2276.2		
1387.31	99.3	2320.7		
1387.36	99.25	2253.93		
1387.41	99.2	2250.96		
1387.46	99.15	2360.1		
1387.51	99.1	2356.15		
1387.56	99.05	2322.49		
1387.61	99	2298.12		
1387.66	98.95	2350.29		
1387.71	98.9	2401.62		
1387.76	98.85	2308.49		
1387.81	98.8	2336.31		
1387.86	98.75	2316.04		
1387.91	98.7	2300.38		
1387.96	98.65	2367.8		
1388.01	98.6	2344.88		
1388.06	98.55	2333.51		
1388.11	98.5	2344.46		
1388.16	98.45	2290.9		
1388.21	98.4	2294.39		
1388.26	98.35	2302.45		
1388.31	98.3	2337.78		
1388.36	98.25	2393.14		
1388.41	98.2	2383.44		
1388.46	98.15	2351.72		
1388.51	98.1	2335.37		
1388.56	98.05	2336.21		
1388.61	98	2373.62		
1388.66	97.95	2415.8		
1388.71	97.9	2394.04		
1388.76	97.85	2384.71		
1388.81	97.8	2357.69		
1388.86	97.75	2437.94		
1388.91	97.7	2388.23		
1388.96	97.65	2403.06		
1389.01	97.6	2342.16		
1389.06	97.55	2327.25		
1389.11	97.5	2314.87		
1389.16	97.45	2335.12		
1389.21	97.4	2341.95		
1389.26	97.35	2383.46		
1389.31	97.3	2360.24		
1389.36	97.25	2344.79		
1389.41	97.2	2316.15		
1389.46	97.15	2316.45		
1389.51	97.1	2321.7		
1389.56	97.05	2351.31		
1389.61	97	2339		
1389.66	96.95	2362.13		
1389.71	96.9	2319.62		
1389.76	96.85	2316.31		
1389.81	96.8	2342.98		
1389.86	96.75	2285.6		
1389.91	96.7	2276.92		
1389.96	96.65	2266.41		
1390.01	96.6	2296.44		
1390.06	96.55	2328.22		
1390.11	96.5	2330.72		
1390.16	96.45	2310.92		
1390.21	96.4	2277.77		
1390.26	96.35	2289.88		
1390.31	96.3	2266.94		
1390.36	96.25	2248.36		
1390.41	96.2	2224.97		
1390.46	96.15	2237.18		
1390.51	96.1	2242.16		
1390.56	96.05	2291.8		
1390.61	96	2300.29		
1390.66	95.95	2262.49		
1390.71	95.9	2289.6		
1390.76	95.85	2266.81		
1390.81	95.8	2255.08		
1390.86	95.75	2280.62		
1390.91	95.7	2216.58		
1390.96	95.65	2270.88		
1391.01	95.6	2253.08		
1391.06	95.55	2254.83		
1391.11	95.5	2301.98		
1391.16	95.45	2293.26		
1391.21	95.4	2313.34		
1391.26	95.35	2304.64		
1391.31	95.3	2295.33		
1391.36	95.25	2312.17		
1391.41	95.2	2330.5		
1391.46	95.15	2336.96		
1391.51	95.1	2288.47		
1391.56	95.05	2303.72		
1391.61	95	2324.53		
1391.66	94.95	2349.23		
1391.71	94.9	2370.11		
1391.76	94.85	2351.65		
1391.81	94.8	2316.7		
1391.86	94.75	2401.64		
1391.91	94.7	2350.41		
1391.96	94.65	2327.7		
1392.01	94.6	2384.19		
1392.06	94.55	2442.65		
1392.11	94.5	2444.89		
1392.16	94.45	2390.63		
1392.21	94.4	2360.6		
1392.26	94.35	2336.57		
1392.31	94.3	2356.04		
1392.36	94.25	2406.59		
1392.41	94.2	2433.16		
1392.46	94.15	2404.71		
1392.51	94.1	2412.88		
1392.56	94.05	2392		
1392.61	94	2395.86		
1392.66	93.95	2411.17		
1392.71	93.9	2383.13		
1392.76	93.85	2425.06		
1392.81	93.8	2414.82		
1392.86	93.75	2348.53		
1392.91	93.7	2390.56		
1392.96	93.65	2428.24		
1393.01	93.6	2338.03		
1393.06	93.55	2380.92		
1393.11	93.5	2413.71		
1393.16	93.45	2389.43		
1393.21	93.4	2376.12		
1393.26	93.35	2396.39		
1393.31	93.3	2362.65		
1393.36	93.25	2370.97		
1393.41	93.2	2373.74		
1393.46	93.15	2411.38		
1393.51	93.1	2404.25		
1393.56	93.05	2323.6		
1393.61	93	2357.56		
1393.66	92.95	2324.05		
1393.71	92.9	2340.01		
1393.76	92.85	2365.47		
1393.81	92.8	2387.44		
1393.86	92.75	2349.35		
1393.91	92.7	2311.79		
1393.96	92.65	2277.03		
1394.01	92.6	2359.77		
1394.06	92.55	2315.08		
1394.11	92.5	2289.13		
1394.16	92.45	2254.84		
1394.21	92.4	2287.37		
1394.26	92.35	2277.3		
1394.31	92.3	2246.39		
1394.36	92.25	2298.58		
1394.41	92.2	2305.06		
1394.46	92.15	2299.46		
1394.51	92.1	2306.28		
1394.56	92.05	2312.52		
1394.61	92	2297.43		
1394.66	91.95	2291.07		
1394.71	91.9	2353.97		
1394.76	91.85	2311.9		
1394.81	91.8	2302.47		
1394.86	91.75	2330.67		
1394.91	91.7	2340.29		
1394.96	91.65	2334.18		
1395.01	91.6	2404.34		
1395.06	91.55	2383.39		
1395.11	91.5	2395.24		
1395.16	91.45	2394.27		
1395.21	91.4	2365.27		
1395.26	91.35	2376.75		
1395.31	91.3	2429.47		
1395.36	91.25	2440.84		
1395.41	91.2	2444.5		
1395.46	91.15	2517.56		
1395.51	91.1	2494.82		
1395.56	91.05	2523.9		
1395.61	91	2450.89		
1395.66	90.95	2506.47		
1395.71	90.9	2542.26		
1395.76	90.85	2524.95		
1395.81	90.8	2535.37		
1395.86	90.75	2525.36		
1395.91	90.7	2563.31		
1395.96	90.65	2551.45		
1396.01	90.6	2605.3		
1396.06	90.55	2594.18		
1396.11	90.5	2618.13		
1396.16	90.45	2649.83		
1396.21	90.4	2606.19		
1396.26	90.35	2621.96		
1396.31	90.3	2627.6		
1396.36	90.25	2637.71		
1396.41	90.2	2630.34		
1396.46	90.15	2632.67		
1396.51	90.1	2609.21		
1396.56	90.05	2659.4		
1396.61	90	2642.84		
1396.66	89.95	2678.05		
1396.71	89.9	2588.43		
1396.76	89.85	2641.08		
1396.81	89.8	2650.91		
1396.86	89.75	2671.89		
1396.91	89.7	2692.18		
1396.96	89.65	2693.57		
1397.01	89.6	2687.16		
1397.06	89.55	2716.2		
1397.11	89.5	2728.55		
1397.16	89.45	2793.12		
1397.21	89.4	2816.03		
1397.26	89.35	2852.68		
1397.31	89.3	2899.37		
1397.36	89.25	2921.01		
1397.41	89.2	2957.43		
1397.46	89.15	3039.62		
1397.51	89.1	3151.47		
1397.56	89.05	3239.43		
1397.61	89	3293.96		
1397.66	88.95	3443.75		
1397.71	88.9	3572.32		
1397.76	88.85	3667.95		
1397.81	88.8	3820.09		
1397.86	88.75	4009.29		
1397.91	88.7	4266.82		
1397.96	88.65	4557.59		
1398.01	88.6	4698.22		
1398.06	88.55	5075.1		
1398.11	88.5	5516.09		
1398.16	88.45	6004.26		
1398.21	88.4	6505.71		
1398.26	88.35	7096.98		
1398.31	88.3	7959.97		
1398.36	88.25	8924.89		
1398.41	88.2	9974.46		
1398.46	88.15	11477.5		
1398.51	88.1	13080.9		
1398.56	88.05	14959		
1398.61	88	17103.6		
1398.66	87.95	19342.4		
1398.71	87.9	21711.4		
1398.76	87.85	24373.9		
1398.81	87.8	26529.7		
1398.86	87.75	28234.8		
1398.91	87.7	29656.7		
1398.96	87.65	29774.5		
1399.01	87.6	29300.5		
1399.06	87.55	28197.5		
1399.11	87.5	26331.2		
1399.16	87.45	23814.1		
1399.21	87.4	21372.1		
1399.26	87.35	19002.9		
1399.31	87.3	16776		
1399.36	87.25	14712.6		
1399.41	87.2	12841.4		
1399.46	87.15	11318.2		
1399.51	87.1	9976.54		
1399.56	87.05	8679.02		
1399.61	87	7591.09		
1399.66	86.95	6703.47		
1399.71	86.9	5949.08		
1399.76	86.85	5352.19		
1399.81	86.8	4841.88		
1399.86	86.75	4349.48		
1399.91	86.7	4064.82		
1399.96	86.65	3788.79		
1400.01	86.6	3607.89		
1400.06	86.55	3376.12		
1400.11	86.5	3268.12		
1400.16	86.45	3093.07		
1400.21	86.4	2879.39		
1400.26	86.35	2829.1		
1400.31	86.3	2743.75		
1400.36	86.25	2698.15		
1400.41	86.2	2649.42		
1400.46	86.15	2580.39		
1400.51	86.1	2530.95		
1400.56	86.05	2523.59		
1400.61	86	2495.66		
1400.66	85.95	2491.49		
1400.71	85.9	2440.7		
1400.76	85.85	2425.36		
1400.81	85.8	2409.76		
1400.86	85.75	2434.25		
1400.91	85.7	2504.46		
1400.96	85.65	2539.78		
1401.01	85.6	2562.73		
1401.06	85.55	2619.34		
1401.11	85.5	2716.34		
1401.16	85.45	2785.36		
1401.21	85.4	2790.24		
1401.26	85.35	2928.74		
1401.31	85.3	3067.33		
1401.36	85.25	3210.51		
1401.41	85.2	3326.39		
1401.46	85.15	3463.79		
1401.51	85.1	3652.18		
1401.56	85.05	3883.55		
1401.61	85	4172.7		
1401.66	84.95	4482.74		
1401.71	84.9	4865.27		
1401.76	84.85	5282.7		
1401.81	84.8	5826.79		
1401.86	84.75	6466.06		
1401.91	84.7	7109.61		
1401.96	84.65	8085.01		
1402.01	84.6	9157.33		
1402.06	84.55	10430		
1402.11	84.5	12143.7		
1402.16	84.45	14123.9		
1402.21	84.4	16288.3		
1402.26	84.35	18929.1		
1402.31	84.3	21881.2		
1402.36	84.25	25206.8		
1402.41	84.2	28449.4		
1402.46	84.15	31674.1		
1402.51	84.1	34210.5		
1402.56	84.05	36411.2		
1402.61	84	37179.4		
1402.66	83.95	37308.6		
1402.71	83.9	36292.8		
1402.76	83.85	34018.1		
1402.81	83.8	31168.3		
1402.86	83.75	27934.5		
1402.91	83.7	24654.5		
1402.96	83.65	21340		
1403.01	83.6	18568.6		
1403.06	83.55	16128.7		
1403.11	83.5	13923.5		
1403.16	83.45	11886.8		
1403.21	83.4	10073.6		
1403.26	83.35	8673.4		
1403.31	83.3	7293.94		
1403.36	83.25	6294.78		
1403.41	83.2	5313.96		
1403.46	83.15	4551.22		
1403.51	83.1	3931.53		
1403.56	83.05	3470.11		
1403.61	83	3126.35		
1403.66	82.95	2761.67		
1403.71	82.9	2521.91		
1403.76	82.85	2257.64		
1403.81	82.8	2072.34		
1403.86	82.75	1937.2		
1403.91	82.7	1772.03		
1403.96	82.65	1659.17		
1404.01	82.6	1605.1		
1404.06	82.55	1513.33		
1404.11	82.5	1443.24		
1404.16	82.45	1362.89		
1404.21	82.4	1276.12		
1404.26	82.35	1229.8		
1404.31	82.3	1238.2		
1404.36	82.25	1186.45		
1404.41	82.2	1120.64		
1404.46	82.15	1076.11		
1404.51	82.1	1026.99		
1404.56	82.05	992.361		
1404.61	82	1003.49		
1404.66	81.95	934.482		
1404.71	81.9	887.133		
1404.76	81.85	886.253		
1404.81	81.8	879.206		
1404.86	81.75	868.443		
1404.91	81.7	842.884		
1404.96	81.65	814.107		
1405.01	81.6	786.155		
1405.06	81.55	769.607		
1405.11	81.5	764.031		
1405.16	81.45	742.987		
1405.21	81.4	732.722		
1405.26	81.35	718.201		
1405.31	81.3	701.055		
1405.36	81.25	705.464		
1405.41	81.2	651.405		
1405.46	81.15	656.548		
1405.51	81.1	654.084		
1405.56	81.05	648.081		
1405.61	81	676.583		
1405.66	80.95	639.326		
1405.71	80.9	648.977		
1405.76	80.85	648.874		
1405.81	80.8	664.277		
1405.86	80.75	651.759		
1405.91	80.7	648.408		
1405.96	80.65	617.779		
1406.01	80.6	595.473		
1406.06	80.55	610.37		
1406.11	80.5	611.745		
1406.16	80.45	580.83		
1406.21	80.4	597.988		
1406.26	80.35	600.978		
1406.31	80.3	580.772		
1406.36	80.25	558.321		
1406.41	80.2	565.748		
1406.46	80.15	609.86		
1406.51	80.1	566.986		
1406.56	80.05	552.517		
1406.61	80	560.943		
1406.66	79.95	542.433		
1406.71	79.9	551.314		
1406.76	79.85	536.485		
1406.81	79.8	562.379		
1406.86	79.75	556.184		
1406.91	79.7	544.292		
1406.96	79.65	556.362		
1407.01	79.6	572.76		
1407.06	79.55	528.52		
1407.11	79.5	562.024		
1407.16	79.45	560.051		
1407.21	79.4	552.405		
1407.26	79.35	542.743		
1407.31	79.3	535.224		
1407.36	79.25	513.889		
1407.41	79.2	523.36		
1407.46	79.15	520.829		
1407.51	79.1	526.704		
1407.56	79.05	516.059		
1407.61	79	552.13		
1407.66	78.95	519.925		
1407.71	78.9	531.461		
1407.76	78.85	548.94		
1407.81	78.8	554.953		
1407.86	78.75	548.053		
1407.91	78.7	528.937		
1407.96	78.65	531.165		
1408.01	78.6	507.48		
1408.06	78.55	520.013		
1408.11	78.5	540.065		
1408.16	78.45	519.604		
1408.21	78.4	505.683		
1408.26	78.35	527.546		
1408.31	78.3	526.401		
1408.36	78.25	556.895		
1408.41	78.2	532.054		
1408.46	78.15	516.227		
1408.51	78.1	512.303		
1408.56	78.05	517.327		
1408.61	78	523.411		
1408.66	77.95	502.562		
1408.71	77.9	511.394		
1408.76	77.85	513.351		
1408.81	77.8	508.501		
1408.86	77.75	493.013		
1408.91	77.7	521.887		
1408.96	77.65	502.433		
1409.01	77.6	519.157		
1409.06	77.55	523.029		
1409.11	77.5	523.53		
1409.16	77.45	529.39		
1409.21	77.4	520.121		
1409.26	77.35	530.314		
1409.31	77.3	503.155		
1409.36	77.25	540.825		
1409.41	77.2	536.34		
1409.46	77.15	543.985		
1409.51	77.1	516.175		
1409.56	77.05	511.356		
1409.61	77	528.186		
1409.66	76.95	546.137		
1409.71	76.9	516.566		
1409.76	76.85	511.243		
1409.81	76.8	523.492		
1409.86	76.75	524.648		
1409.91	76.7	538.885		
1409.96	76.65	525.394		
1410.01	76.6	541.58		
1410.06	76.55	523.502		
1410.11	76.5	532.695		
1410.16	76.45	536.266		
1410.21	76.4	536.439		
1410.26	76.35	558.587		
1410.31	76.3	565.215		
1410.36	76.25	565.012		
1410.41	76.2	548.556		
1410.46	76.15	550.794		
1410.51	76.1	571.484		
1410.56	76.05	581.477		
1410.61	76	563.089		
1410.66	75.95	586.577		
1410.71	75.9	587.206		
1410.76	75.85	561.034		
1410.81	75.8	549.4		
1410.86	75.75	571.015		
1410.91	75.7	588.167		
1410.96	75.65	583.136		
1411.01	75.6	584.184		
1411.06	75.55	556.441		
1411.11	75.5	574.389		
1411.16	75.45	615.073		
1411.21	75.4	601.283		
1411.26	75.35	585.476		
1411.31	75.3	593.197		
1411.36	75.25	579.936		
1411.41	75.2	563.835		
1411.46	75.15	580.864		
1411.51	75.1	624.798		
1411.56	75.05	598.376		
1411.61	75	579.571		
